
     ========================================================
     |                                                      |
     |        HydroLight Version 6.0.1 (MAIN CODE)          |
     |        Copyright (c) 2019 by John D. Hedley          |
     |                                                      |
     |       This copy of HE6 is licensed solely to         |
     |   Kim Course 2025                                    |
     |                                                      |
     |     S/N KIM500_31122025                              |
     |                                                      |
     | THIS PROGRAM IS EXPERIMENTAL AND IS LICENSED "AS IS" |
     | WITHOUT REPRESENTATION OF WARRANTY OF ANY KIND,      |
     | EITHER EXPRESS OR IMPLIED.  THE ENTIRE RISK AS TO    |
     | THE QUALITY AND PERFORMANCE OF HYDROLIGHT IS WITH    |
     | THE USER.  HYDROLIGHT IS NOT FAULT TOLERANT.         |
     |                                                      |
     ========================================================



  RUN TITLE:  Replace the rootname and title (22 NOV 2025 21:29)                                                                                                                                                                                                              

  Run started on 22 NOV 2025 at 21:29:59.9


  The unit sphere of directions is partitioned into quads that have the standard 10-degree theta and 15-degree phi spacing

  The radiance distribution is computed on the following (theta, phi ,geometric depth, wavelength) grid:
         (The closely spaced pairs of depths are used for computation of K-function derivatives)

         I     theta         J       phi         K       z           L    lambda
               (deg)                (deg)               (m)                (nm)

         1      87.5         1       0.0         1     0.000         1     410.0
         2      80.0         2      15.0         2     0.010         2     430.0
         3      70.0         3      30.0         3     5.000         3     450.0
         4      60.0         4      45.0         4     5.010         4     470.0
         5      50.0         5      60.0         5    10.000         5     490.0
         6      40.0         6      75.0         6    10.010         6     510.0
         7      30.0         7      90.0         7    15.000         7     530.0
         8      20.0         8     105.0         8    15.010         8     550.0
         9      10.0         9     120.0         9    19.990         9     570.0
        10       0.0        10     135.0        10    20.000        10     590.0
                            11     150.0                            11     610.0
                            12     165.0                            12     630.0
                            13     180.0                            13     650.0
                            14     195.0                            14     670.0
                            15     210.0                            15     690.0
                            16     225.0                                        
                            17     240.0                                        
                            18     255.0                                        
                            19     270.0                                        
                            20     285.0                                        
                            21     300.0                                        
                            22     315.0                                        
                            23     330.0                                        
                            24     345.0                                        


  ***** BEGIN IOP MODEL SPECIFICATIONS *****

     The "generic Case 2" IOP model is being used.

        The absorption and scattering coefficients are determined by four components:

           Component 1 is pure water
           Component 2 is chlorophyll-bearing particles
           Component 3 is CDOM (that does not covary with chlorophyll)
           Component 4 is mineral particles (that do not covary with chlorophyll)
                       (See the Technical Documentation or the source code for the bio-optical models that
                        convert these components concentrations to absorption and scattering coefficients.)

  Component 1 (pure water) specification:

     Pure water a and b values are computed as functions of temperature T and salinity S for
        T = 20.0 deg C and S = 35.0 PSU

     The phase function for IOP component  1 comes from file
        ../data/phase_functions/HydroLight/dpf_pure_H2O.txt

     The first  1 header records from data file ../data/phase_functions/HydroLight/dpf_pure_H2O.txt are:
        Phase function: A pure water phase function 0.06225*(1.0 + 0.835*cospsi^2) (created 27 Aug 2018 at 16:19)

          2 header records read

  Component 2 (chlorophyll-bearing particles) specification:

     The Chlorophyll concentration Chl(z) is obtained from measured values read from file:
        C:/HE60/data/examples/Chlzdata.txt                                                                                                                                                                                                                              
        (Linear interpolation is used to define Chl(z) at all depths)

     The first  1 header records from data file C:/HE60/data/examples/Chlzdata.txt are:
        EXAMPLE "chlzdata" file showing the Hydrolight "Chlorophyll-data standard format" for use in IOP models.

          6 header records read

          6 data records read

     The specific absorption spectrum a*(lambda) for component 2 is the default chlorophyll spectrum on file
        ../data/examples/astarchl.txt

     The scattering spectrum b(z,wavelength) for component 2 is calculated using a Power Law model:
          b = 0.3000 [concentration(z)]^(0.6200) * (550.0/wavelength)^(1.0000)

     The phase function for IOP component  2 comes from file
        ../data/phase_functions/HydroLight/dpf_FF_bb001.txt

     The first  1 header records from data file ../data/phase_functions/HydroLight/dpf_FF_bb001.txt are:
        Phase function: Fournier-Forand phase function with bbtilde = 0.001 (FFmu = 3.198, FFn = 1.040) (created 28 Aug 2018 at 13:27)

          2 header records read

  Component 3 (CDOM that does not covary with chlorophyll) specification:

     The CDOM absorption at reference wavelength 440.0 nm is constant with depth with a value of     0.00 (1/m)

     The CDOM absorption spectrum for component 3 is calculated from an exponential model:
          a*(lambda) = 0.0000* exp[-0.0140*(lambda - 440.0)]

     CDOM is assumed to be non-scattering

  Component 4 (mineral particles that do not covary with chlorophyll) specification:

     The mineral particle concentration is constant with depth with a value of     0.00 (g/m^3)

     The concentration-specific absorption spectrum a*(lambda) for component 4 is the user-defined spectrum on file
        ../data/examples/minerals/astarmin_average.txt

     The concentration-specific scattering spectrum b*(lambda) for component 4 is the user-defined spectrum on file
        ../data/examples/minerals/bstarmin_average.txt

     The phase function for IOP component  4 comes from file
        ../data/phase_functions/HydroLight/dpf_Petzold_avg_particle.txt

     The first  1 header records from data file ../data/phase_functions/HydroLight/dpf_Petzold_avg_particle.txt are:
        Phase function: Petzold "average particle" phase function from Light and Water Table 3.10 (created 28 Aug 2018 at 16:28)

          2 header records read

     The component concentrations at the requested output depths are:

           depth        Chl    a_CDOM(440)   minerals
             (m)     (mg/m^3)      (1/m)      (g/m^3)

           0.000       0.500       0.000       0.000
           5.000       0.700       0.000       0.000
          10.000       1.200       0.000       0.000
          15.000       2.100       0.000       0.000
          20.000       1.500       0.000       0.000

  ***** END IOP MODEL SPECIFICATIONS *****


  ***** BEGIN INELASTIC SCATTER AND INTERNAL SOURCE SPECIFICATIONS *****

     Chlorophyll fluorescence is included in this run
        The chlorophyll absorption coefficient needed for the fluorescence calculation is obtained from the chlorophyll component of the IOP model
        The Chl fluorescence quantum efficiency set to  0.020

     CDOM fluorescence is included in this run.
        The CDOM absorption coefficient needed for the fluorescence calculation is obtained from the CDOM component of the IOP model

     Raman scattering is included in this run
        The Raman scattering coefficient is  2.60E-04 1/m at reference wavelength  488.0 nm
        The Raman scattering coefficient depends on the EXCITATION wavelength as
           (reference wavelength/excitation wavelength)^5.30

  ***** END INELASTIC SCATTER AND INTERNAL SOURCE SPECIFICATIONS *****


  ***** BEGIN ATMOSPHERIC MODEL SPECIFICATIONS *****

     Normalized sky radiances are computed using sky model "sky_radiance_HC" (Harrison and Coombes normalized sky radiances)

     The cloud fraction is cloud =  0.0 (0 for a clear sky to 1 for a heavy overcast)

     The sun is placed in quad Q(r,s) = Q( 7, 1) centered at (theta, phi) = (30.000,  0.000)

     Diffuse and direct sky irradiances are computed using RADTRANX
        (The Gregg and Carder RADTRAN model eXtended to 300-1000 nm)
     The RADTRANX clear-sky irradiances are adjusted for cloudiness by the model of Kasten and Czeplak

     Parameter values used in the RADTRANX model:
          Solar zenith    angle =   30.0  degrees
          Solar azimuthal angle =    0.0  degrees (downwind is 0)
          Sea level pressure    =   29.9  in. mercury
          Day of year not set (mean earth-sun distance used)
          Air mass type         =    1.0
          Relative humidity     =   80.0  %
          Precipitable water    =    2.5  cm
          24-hr wind speed      =    5.0  m/sec
          Current wind speed    =    5.0  m/sec
          Visibility            =   15.0  km
          Total ozone           =  300.0  Dobson units

     Irradiances are computed just above the sea surface

     Aerosol parameters from the Navy aerosol model used by RADTRANX:
          alpha                    =   0.2174
          beta                     =   0.2289
          asymmetry parameter      =   0.7892
          single scattering albedo =   0.9928

     Aerosol optical thickness at 550 nm =    0.261
 

  ***** END ATMOSPHERIC MODEL SPECIFICATIONS *****


  ***** BEGIN AIR-WATER SURFACE SPECIFICATIONS *****

     The air-water surface is for a wind speed of  5.0 m/s

     The water real index of refraction is constant for all wavelengths with the value of 1.340

     The surface wave model is Cox-Munk with azimuthally averaged slope statistics

     The azimuthal angle of the sun relative to the downwind direction is sunphi =   0.0 deg

  ***** END AIR-WATER SURFACE SPECIFICATIONS *****


  ***** BEGIN BOTTOM BOUNDARY SPECIFICATIONS *****

     The bottom boundary is an opaque reflecting surface at depth  20.00 m

     The bottom bidirectional reflectance distribution function (BRDF) is Lambertian:
        BRDF(mu',phi',mu,phi) = R/pi

     The bottom reflectance R is obtained from measured values read from a file named:
     ../data/bottom_reflectances/avg_coral.txt                                                                                                                                                                                                                       
        (Linear interpolation is used to define R at all wavelengths)

  ***** END BOTTOM BOUNDARY SPECIFICATIONS *****


  ***** BEGIN WARNING MESSAGES FOR INPUT DATA FILES *****

     No files were read with data ranges less than the run depth and wavelength ranges.

  ***** END WARNING MESSAGES FOR INPUT DATA FILES *****




     Initialization of HydroLight completed in  0.1 sec.


  * * * * * Output for wavelength band    1 ( 400.0 to  420.0 nm; nominal wavelength =  410.0 nm)  * * * * *
 

  RADTRANX clear-sky spectral irradiances averaged over the band from 400.0 nm to 420.0 nm:
          Ed(diffuse) =  4.364E-01     Ed(direct) =  7.330E-01     Ed(total) =  1.169E+00


  Absorption Coefficients of Individual Components at  410.0 nm

  iz   Geo Depth  Opt Depth   Comp 1   Comp 2   Comp 3   Comp 4    Total                                                                                                                                                                                        
          (m)                  (1/m)    (1/m)    (1/m)    (1/m)     (1/m)                                                                                                                                                                                       

   1     0.000      0.000     0.0060   0.0207   0.0000   0.0000   0.0267
   3     5.000      1.648     0.0060   0.0290   0.0000   0.0000   0.0350
   5    10.000      3.848     0.0060   0.0497   0.0000   0.0000   0.0557
   7    15.000      6.986     0.0060   0.0869   0.0000   0.0000   0.0929
  10    20.000     10.312     0.0060   0.0621   0.0000   0.0000   0.0681


  Scattering Coefficients of Individual Components at  410.0 nm

  iz   Geo Depth  Opt Depth   Comp 1   Comp 2   Comp 3   Comp 4    Total                                                                                                                                                                                        
          (m)                  (1/m)    (1/m)    (1/m)    (1/m)     (1/m)                                                                                                                                                                                       

   1     0.000      0.000     0.0059   0.2619   0.0000   0.0000   0.2678
   3     5.000      1.648     0.0059   0.3226   0.0000   0.0000   0.3285
   5    10.000      3.848     0.0059   0.4506   0.0000   0.0000   0.4565
   7    15.000      6.986     0.0059   0.6375   0.0000   0.0000   0.6434
  10    20.000     10.312     0.0059   0.5175   0.0000   0.0000   0.5234


  Backscattering Coefficients of Individual Components at  410.0 nm
  (computed from the scattering coefficients and the phase functions)

  iz   Geo Depth  Opt Depth   Comp 1   Comp 2   Comp 3   Comp 4    Total                                                                                                                                                                                        
          (m)                  (1/m)    (1/m)    (1/m)    (1/m)     (1/m)                                                                                                                                                                                       

   1     0.000      0.000    0.00296  0.00026  0.00000  0.00000  0.00323
   3     5.000      1.648    0.00296  0.00032  0.00000  0.00000  0.00329
   5    10.000      3.848    0.00296  0.00045  0.00000  0.00000  0.00341
   7    15.000      6.986    0.00296  0.00064  0.00000  0.00000  0.00360
  10    20.000     10.312    0.00296  0.00052  0.00000  0.00000  0.00348


  Summary of Inherent Optical Properties at  410.0 nm

  iz  Geo Depth  Opt Depth    total a   total b    total c    albedo   total bb  total bb/b
          (m)                  (1/m)      (1/m)               (1/m)

   1     0.000      0.000      0.0267    0.2678     0.2945    0.9093    0.00323    0.01205
   3     5.000      1.648      0.0350    0.3285     0.3635    0.9038    0.00329    0.01000
   5    10.000      3.848      0.0557    0.4565     0.5122    0.8913    0.00341    0.00748
   7    15.000      6.986      0.0929    0.6434     0.7364    0.8738    0.00360    0.00560
  10    20.000     10.312      0.0681    0.5234     0.5915    0.8849    0.00348    0.00665

     The bottom reflectance at wavelength 410.0 nm is R = 0.055



  Spectral Irradiances [units of W/(m^2 nm)], Mean Cosines (mubars), and Irradiance Reflectance at  410.0 nm

   iz     z(m)     zeta        Eou            Eod             Eo             Eu             Ed      mubar_u  mubar_d    mubar      R = Eu/Ed

             in air         1.6789E-01     1.7314E+00     1.8993E+00     5.8487E-02     1.1694E+00   0.3484   0.6754   0.5849     5.0014E-02

    1     0.00     0.00     7.3126E-02     1.3215E+00     1.3946E+00     3.2062E-02     1.1430E+00   0.4384   0.8649   0.7966     2.8051E-02
    3     5.00     1.65     5.0377E-02     1.1004E+00     1.1507E+00     2.2137E-02     9.3726E-01   0.4394   0.8518   0.7952     2.3619E-02
    5    10.00     3.85     3.1730E-02     8.3183E-01     8.6356E-01     1.4702E-02     7.0322E-01   0.4633   0.8454   0.7973     2.0906E-02
    7    15.00     6.99     2.3084E-02     5.2541E-01     5.4849E-01     1.1967E-02     4.4320E-01   0.5184   0.8435   0.7862     2.7001E-02
   10    20.00    10.31     2.9395E-02     3.2113E-01     3.5053E-01     1.4697E-02     2.6894E-01   0.5000   0.8375   0.7253     5.4650E-02



  Selected Spectral Radiances [units of W/(m^2 sr nm)] and Radiance-Irradiance Ratios at  410.0 nm

  [(theta,phi) are the directions of radiance propagation (theta = 0 is downward, phi = 0 is downwind).]

   iz       z     zeta       Lu(z)        Ld(z)    Lh(z,phi=0)  Lh(z,phi=90) Lh(z,phi=180)    Lu/Ed      Q = Eu/Lu       Lw       Rrs = Lw/Ed
           (m)            (theta=180)   (theta=0)   (theta=90)   (theta=90)   (theta=90)      (1/sr)       (sr)      (theta=180)    (1/sr)

             in air        1.179E-02    1.187E-01    1.426E-01    1.228E-01    1.836E-01    1.008E-02    4.962E+00    4.969E-03    4.249E-03

    1     0.00     0.00    9.200E-03    2.203E-01    1.817E-02    1.718E-02    1.896E-02    8.049E-03    3.485E+00
    3     5.00     1.65    6.593E-03    2.258E-01    1.323E-02    1.326E-02    1.637E-02    7.034E-03    3.358E+00
    5    10.00     3.85    4.770E-03    2.207E-01    7.591E-03    7.888E-03    1.038E-02    6.783E-03    3.082E+00
    7    15.00     6.99    4.195E-03    1.883E-01    3.569E-03    3.844E-03    5.360E-03    9.465E-03    2.853E+00
   10    20.00    10.31    4.678E-03    1.451E-01    3.900E-03    4.024E-03    4.616E-03    1.740E-02    3.142E+00



  Spectral Radiances Just Above the Water Surface (at z = a) [units of W/(m^2 sr nm)] at  410.0 nm
  and f/Q = Lu/[Ed (bb/a)] [units of 1/sr] just below the surface (at z = 0)

   [(Theta,Phi) are the directions of radiance propagation.
   For sky radiances only, theta is measured from 0 at the zenith.
   IF the sun is at phi = 0, solar radiance propagates in the Phi = 180 direction, and then
   Phi = 45 represents the 135 degree viewing angle for minimizing sun glitter.]

   I   J    Theta      Phi  Phi-view      L(sky)      L(water-lv)    L(refl-sky)    L(total up)       Rrs           rho       f/Q(z=0)
           (zenith)                                                                                             (Lrefl/Lsky)   [1/sr]
  10   1      0.0      0.0      0.0    1.18685E-01    4.96865E-03    6.81763E-03    1.17863E-02    4.24884E-03    0.057443    0.066619
   9   1     10.0      0.0    180.0    7.43745E-02    5.12187E-03    2.23408E-03    7.35595E-03    4.37987E-03    0.030038    0.069071
   9   4     10.0     45.0    135.0    8.14946E-02    5.05782E-03    2.71401E-03    7.77183E-03    4.32510E-03    0.033303    0.068317
   9   7     10.0     90.0     90.0    1.09028E-01    4.94357E-03    5.09864E-03    1.00422E-02    4.22740E-03    0.046765    0.066515
   8   1     20.0      0.0    180.0    5.80041E-02    5.20880E-03    1.38828E-03    6.59708E-03    4.45421E-03    0.023934    0.070585
   8   4     20.0     45.0    135.0    6.45690E-02    5.10346E-03    1.64714E-03    6.75060E-03    4.36413E-03    0.025510    0.069632
   8   7     20.0     90.0     90.0    9.47766E-02    4.94721E-03    3.25938E-03    8.20659E-03    4.23051E-03    0.034390    0.066327
   7   1     30.0      0.0    180.0    5.01256E-02    5.27613E-03    1.21510E-03    6.49123E-03    4.51178E-03    0.024241    0.073008
   7   4     30.0     45.0    135.0    5.55649E-02    5.18293E-03    1.35475E-03    6.53768E-03    4.43208E-03    0.024381    0.070974
   7   7     30.0     90.0     90.0    8.14197E-02    4.92725E-03    2.23652E-03    7.16377E-03    4.21345E-03    0.027469    0.066259
   6   1     40.0      0.0    180.0    4.75295E-02    5.33698E-03    1.34551E-03    6.68249E-03    4.56382E-03    0.028309    0.075469
   6   4     40.0     45.0    135.0    5.19833E-02    5.19890E-03    1.45848E-03    6.65738E-03    4.44574E-03    0.028057    0.072613
   6   7     40.0     90.0     90.0    7.31402E-02    4.86989E-03    2.10641E-03    6.97630E-03    4.16439E-03    0.028800    0.066754
   5   1     50.0      0.0    180.0    4.98513E-02    5.35379E-03    2.12812E-03    7.48191E-03    4.57820E-03    0.042689    0.078643
   5   4     50.0     45.0    135.0    5.31275E-02    5.17369E-03    2.20533E-03    7.37902E-03    4.42418E-03    0.041510    0.075211
   5   7     50.0     90.0     90.0    7.06842E-02    4.80016E-03    2.85761E-03    7.65778E-03    4.10477E-03    0.040428    0.068652
   4   1     60.0      0.0    180.0    5.92821E-02    5.26623E-03    4.97785E-03    1.02441E-02    4.50332E-03    0.083969    0.083943
   4   4     60.0     45.0    135.0    6.06243E-02    5.06795E-03    4.90656E-03    9.97451E-03    4.33376E-03    0.080934    0.080128
   4   7     60.0     90.0     90.0    7.48329E-02    4.67120E-03    5.71985E-03    1.03910E-02    3.99448E-03    0.076435    0.073536
   3   1     70.0      0.0    180.0    8.26285E-02    4.87585E-03    1.37128E-02    1.85886E-02    4.16949E-03    0.165957    0.093772
   3   4     70.0     45.0    135.0    8.02999E-02    4.66141E-03    1.31576E-02    1.78190E-02    3.98612E-03    0.163855    0.089841
   3   7     70.0     90.0     90.0    8.96326E-02    4.27687E-03    1.42427E-02    1.85196E-02    3.65728E-03    0.158901    0.084177
   2   1     80.0      0.0    180.0    1.41579E-01    4.09358E-03    3.40853E-02    3.81789E-02    3.50054E-03    0.240751    0.110825
   2   4     80.0     45.0    135.0    1.31090E-01    3.98396E-03    3.30229E-02    3.70069E-02    3.40680E-03    0.251910    0.107124
   2   7     80.0     90.0     90.0    1.29891E-01    3.61808E-03    3.45878E-02    3.82059E-02    3.09394E-03    0.266285    0.103556
   1   1     87.5      0.0    180.0    2.21196E-01    3.29435E-03    6.06683E-02    6.39626E-02    2.81710E-03    0.274274    0.126241
   1   4     87.5     45.0    135.0    1.99378E-01    2.93129E-03    6.01961E-02    6.31274E-02    2.50663E-03    0.301919    0.123251
   1   7     87.5     90.0     90.0    1.81593E-01    3.12052E-03    6.08878E-02    6.40083E-02    2.66845E-03    0.335298    0.120996



  K-functions (units of 1/meter) at  410.0 nm
     (These are accurate local (at depth z) values only when zupper and zlower are closely spaced.)

    zupper    zlower       z           Kou(z)         Kod(z)          Ko(z)          Ku(z)          Kd(z)        Knet(z)         KLu(z)

     0.000     0.010     0.005     6.8239E-02     3.0374E-02     3.2359E-02     6.7315E-02     3.4473E-02     3.3525E-02     6.3183E-02
     5.000     5.010     5.005     8.9565E-02     4.2637E-02     4.4691E-02     8.3005E-02     4.4929E-02     4.4008E-02     6.9986E-02
    10.000    10.010    10.005     9.6913E-02     6.9030E-02     7.0055E-02     7.7941E-02     7.0046E-02     6.9878E-02     5.5551E-02
    15.000    15.010    15.005    -2.6530E-03     1.1432E-01     1.0940E-01    -1.5834E-02     1.1456E-01     1.1818E-01    -1.2350E-02
    19.990    20.000    19.995    -1.5080E-01     8.2433E-02     6.2895E-02    -6.5528E-02     8.5199E-02     9.3906E-02    -2.6061E-02


     Waveband   1 of  15 completed in    0.4 sec.



  * * * * * Output for wavelength band    2 ( 420.0 to  440.0 nm; nominal wavelength =  430.0 nm)  * * * * *
 

  RADTRANX clear-sky spectral irradiances averaged over the band from 420.0 nm to 440.0 nm:
          Ed(diffuse) =  4.132E-01     Ed(direct) =  7.689E-01     Ed(total) =  1.182E+00


  Absorption Coefficients of Individual Components at  430.0 nm

  iz   Geo Depth  Opt Depth   Comp 1   Comp 2   Comp 3   Comp 4    Total                                                                                                                                                                                        
          (m)                  (1/m)    (1/m)    (1/m)    (1/m)     (1/m)                                                                                                                                                                                       

   1     0.000      0.000     0.0059   0.0243   0.0000   0.0000   0.0302
   3     5.000      1.596     0.0059   0.0341   0.0000   0.0000   0.0399
   5    10.000      3.734     0.0059   0.0584   0.0000   0.0000   0.0643
   7    15.000      6.798     0.0059   0.1022   0.0000   0.0000   0.1081
  10    20.000     10.049     0.0059   0.0730   0.0000   0.0000   0.0789


  Scattering Coefficients of Individual Components at  430.0 nm

  iz   Geo Depth  Opt Depth   Comp 1   Comp 2   Comp 3   Comp 4    Total                                                                                                                                                                                        
          (m)                  (1/m)    (1/m)    (1/m)    (1/m)     (1/m)                                                                                                                                                                                       

   1     0.000      0.000     0.0048   0.2497   0.0000   0.0000   0.2545
   3     5.000      1.596     0.0048   0.3076   0.0000   0.0000   0.3124
   5    10.000      3.734     0.0048   0.4296   0.0000   0.0000   0.4345
   7    15.000      6.798     0.0048   0.6078   0.0000   0.0000   0.6127
  10    20.000     10.049     0.0048   0.4934   0.0000   0.0000   0.4982


  Backscattering Coefficients of Individual Components at  430.0 nm
  (computed from the scattering coefficients and the phase functions)

  iz   Geo Depth  Opt Depth   Comp 1   Comp 2   Comp 3   Comp 4    Total                                                                                                                                                                                        
          (m)                  (1/m)    (1/m)    (1/m)    (1/m)     (1/m)                                                                                                                                                                                       

   1     0.000      0.000    0.00242  0.00025  0.00000  0.00000  0.00267
   3     5.000      1.596    0.00242  0.00031  0.00000  0.00000  0.00272
   5    10.000      3.734    0.00242  0.00043  0.00000  0.00000  0.00285
   7    15.000      6.798    0.00242  0.00061  0.00000  0.00000  0.00302
  10    20.000     10.049    0.00242  0.00049  0.00000  0.00000  0.00291


  Summary of Inherent Optical Properties at  430.0 nm

  iz  Geo Depth  Opt Depth    total a   total b    total c    albedo   total bb  total bb/b
          (m)                  (1/m)      (1/m)               (1/m)

   1     0.000      0.000      0.0302    0.2545     0.2847    0.8939    0.00267    0.01047
   3     5.000      1.596      0.0399    0.3124     0.3524    0.8866    0.00272    0.00872
   5    10.000      3.734      0.0643    0.4345     0.4987    0.8711    0.00285    0.00655
   7    15.000      6.798      0.1081    0.6127     0.7207    0.8501    0.00302    0.00494
  10    20.000     10.049      0.0789    0.4982     0.5771    0.8633    0.00291    0.00584

     The bottom reflectance at wavelength 430.0 nm is R = 0.047



  Spectral Irradiances [units of W/(m^2 nm)], Mean Cosines (mubars), and Irradiance Reflectance at  430.0 nm

   iz     z(m)     zeta        Eou            Eod             Eo             Eu             Ed      mubar_u  mubar_d    mubar      R = Eu/Ed

             in air         1.5573E-01     1.7261E+00     1.8818E+00     5.4174E-02     1.1821E+00   0.3479   0.6848   0.5994     4.5830E-02

    1     0.00     0.00     5.5512E-02     1.3197E+00     1.3753E+00     2.4159E-02     1.1520E+00   0.4352   0.8729   0.8201     2.0971E-02
    3     5.00     1.60     3.6885E-02     1.0757E+00     1.1126E+00     1.6083E-02     9.2641E-01   0.4360   0.8612   0.8182     1.7361E-02
    5    10.00     3.73     2.2041E-02     7.8593E-01     8.0797E-01     1.0150E-02     6.7245E-01   0.4605   0.8556   0.8197     1.5093E-02
    7    15.00     6.80     1.5381E-02     4.6705E-01     4.8243E-01     8.0670E-03     3.9894E-01   0.5245   0.8542   0.8102     2.0221E-02
   10    20.00    10.05     2.1449E-02     2.6680E-01     2.8825E-01     1.0725E-02     2.2655E-01   0.5000   0.8491   0.7487     4.7340E-02



  Selected Spectral Radiances [units of W/(m^2 sr nm)] and Radiance-Irradiance Ratios at  430.0 nm

  [(theta,phi) are the directions of radiance propagation (theta = 0 is downward, phi = 0 is downwind).]

   iz       z     zeta       Lu(z)        Ld(z)    Lh(z,phi=0)  Lh(z,phi=90) Lh(z,phi=180)    Lu/Ed      Q = Eu/Lu       Lw       Rrs = Lw/Ed
           (m)            (theta=180)   (theta=0)   (theta=90)   (theta=90)   (theta=90)      (1/sr)       (sr)      (theta=180)    (1/sr)

             in air        1.057E-02    1.124E-01    1.347E-01    1.160E-01    1.735E-01    8.943E-03    5.125E+00    3.727E-03    3.153E-03

    1     0.00     0.00    6.900E-03    2.085E-01    1.394E-02    1.325E-02    1.489E-02    5.989E-03    3.501E+00
    3     5.00     1.60    4.768E-03    2.113E-01    9.798E-03    9.922E-03    1.261E-02    5.147E-03    3.373E+00
    5    10.00     3.73    3.307E-03    2.018E-01    5.317E-03    5.598E-03    7.617E-03    4.918E-03    3.069E+00
    7    15.00     6.80    2.894E-03    1.644E-01    2.296E-03    2.512E-03    3.633E-03    7.254E-03    2.787E+00
   10    20.00    10.05    3.414E-03    1.201E-01    2.689E-03    2.777E-03    3.190E-03    1.507E-02    3.142E+00



  Spectral Radiances Just Above the Water Surface (at z = a) [units of W/(m^2 sr nm)] at  430.0 nm
  and f/Q = Lu/[Ed (bb/a)] [units of 1/sr] just below the surface (at z = 0)

   [(Theta,Phi) are the directions of radiance propagation.
   For sky radiances only, theta is measured from 0 at the zenith.
   IF the sun is at phi = 0, solar radiance propagates in the Phi = 180 direction, and then
   Phi = 45 represents the 135 degree viewing angle for minimizing sun glitter.]

   I   J    Theta      Phi  Phi-view      L(sky)      L(water-lv)    L(refl-sky)    L(total up)       Rrs           rho       f/Q(z=0)
           (zenith)                                                                                             (Lrefl/Lsky)   [1/sr]
  10   1      0.0      0.0      0.0    1.12372E-01    3.72652E-03    6.84450E-03    1.05710E-02    3.15254E-03    0.060909    0.067894
   9   1     10.0      0.0    180.0    7.04183E-02    3.84794E-03    2.15348E-03    6.00142E-03    3.25526E-03    0.030581    0.070530
   9   4     10.0     45.0    135.0    7.71597E-02    3.79781E-03    2.63639E-03    6.43420E-03    3.21285E-03    0.034168    0.069717
   9   7     10.0     90.0     90.0    1.03228E-01    3.70728E-03    5.06478E-03    8.77206E-03    3.13626E-03    0.049064    0.067777
   8   1     20.0      0.0    180.0    5.49187E-02    3.91584E-03    1.31530E-03    5.23114E-03    3.31270E-03    0.023950    0.072120
   8   4     20.0     45.0    135.0    6.11344E-02    3.83456E-03    1.56797E-03    5.40252E-03    3.24393E-03    0.025648    0.071125
   8   7     20.0     90.0     90.0    8.97351E-02    3.70936E-03    3.17604E-03    6.88539E-03    3.13802E-03    0.035393    0.067565
   7   1     30.0      0.0    180.0    4.74592E-02    3.96894E-03    1.15047E-03    5.11940E-03    3.35762E-03    0.024241    0.074738
   7   4     30.0     45.0    135.0    5.26092E-02    3.89644E-03    1.28301E-03    5.17945E-03    3.29629E-03    0.024388    0.072552
   7   7     30.0     90.0     90.0    7.70888E-02    3.69370E-03    2.13426E-03    5.82796E-03    3.12478E-03    0.027686    0.067479
   6   1     40.0      0.0    180.0    4.50013E-02    4.02006E-03    1.27394E-03    5.29399E-03    3.40086E-03    0.028309    0.077361
   6   4     40.0     45.0    135.0    4.92182E-02    3.91074E-03    1.38090E-03    5.29164E-03    3.30838E-03    0.028057    0.074286
   6   7     40.0     90.0     90.0    6.92496E-02    3.65003E-03    1.99580E-03    5.64584E-03    3.08783E-03    0.028820    0.067999
   5   1     50.0      0.0    180.0    4.71995E-02    4.03593E-03    2.01491E-03    6.05084E-03    3.41429E-03    0.042689    0.080716
   5   4     50.0     45.0    135.0    5.03015E-02    3.89355E-03    2.08802E-03    5.98157E-03    3.29384E-03    0.041510    0.077031
   5   7     50.0     90.0     90.0    6.69243E-02    3.59810E-03    2.70561E-03    6.30371E-03    3.04390E-03    0.040428    0.070024
   4   1     60.0      0.0    180.0    5.61287E-02    3.97273E-03    4.71307E-03    8.68580E-03    3.36083E-03    0.083969    0.086274
   4   4     60.0     45.0    135.0    5.73995E-02    3.81576E-03    4.64557E-03    8.46132E-03    3.22803E-03    0.080934    0.082196
   4   7     60.0     90.0     90.0    7.08524E-02    3.50225E-03    5.41559E-03    8.91785E-03    2.96282E-03    0.076435    0.075214
   3   1     70.0      0.0    180.0    7.82333E-02    3.68060E-03    1.29834E-02    1.66640E-02    3.11369E-03    0.165957    0.096488
   3   4     70.0     45.0    135.0    7.60285E-02    3.51165E-03    1.24577E-02    1.59693E-02    2.97076E-03    0.163855    0.092318
   3   7     70.0     90.0     90.0    8.48648E-02    3.20863E-03    1.34851E-02    1.66937E-02    2.71442E-03    0.158901    0.086447
   2   1     80.0      0.0    180.0    1.34048E-01    3.09193E-03    3.22722E-02    3.53642E-02    2.61570E-03    0.240751    0.114215
   2   4     80.0     45.0    135.0    1.24117E-01    3.00303E-03    3.12663E-02    3.42693E-02    2.54048E-03    0.251910    0.110346
   2   7     80.0     90.0     90.0    1.22981E-01    2.71646E-03    3.27480E-02    3.54645E-02    2.29805E-03    0.266285    0.106962
   1   1     87.5      0.0    180.0    2.09430E-01    2.48966E-03    5.74411E-02    5.99308E-02    2.10619E-03    0.274274    0.132489
   1   4     87.5     45.0    135.0    1.88773E-01    2.21084E-03    5.69941E-02    5.92049E-02    1.87031E-03    0.301919    0.129643
   1   7     87.5     90.0     90.0    1.71934E-01    2.34515E-03    5.76490E-02    5.99941E-02    1.98394E-03    0.335298    0.128082



  K-functions (units of 1/meter) at  430.0 nm
     (These are accurate local (at depth z) values only when zupper and zlower are closely spaced.)

    zupper    zlower       z           Kou(z)         Kod(z)          Ko(z)          Ku(z)          Kd(z)        Knet(z)         KLu(z)

     0.000     0.010     0.005     7.1198E-02     3.3905E-02     3.5410E-02     7.3128E-02     3.7619E-02     3.6858E-02     6.9422E-02
     5.000     5.010     5.005     9.8719E-02     4.7598E-02     4.9293E-02     9.2168E-02     4.9606E-02     4.8854E-02     7.8500E-02
    10.000    10.010    10.005     1.0942E-01     7.7754E-02     7.8617E-02     8.8920E-02     7.8621E-02     7.8463E-02     6.2965E-02
    15.000    15.010    15.005    -5.6730E-03     1.3005E-01     1.2572E-01    -2.2886E-02     1.3018E-01     1.3334E-01    -2.0319E-02
    19.990    20.000    19.995    -2.0746E-01     9.3580E-02     7.1210E-02    -9.0248E-02     9.6105E-02     1.0536E-01    -3.8517E-02


     Waveband   2 of  15 completed in    0.4 sec.



  * * * * * Output for wavelength band    3 ( 440.0 to  460.0 nm; nominal wavelength =  450.0 nm)  * * * * *
 

  RADTRANX clear-sky spectral irradiances averaged over the band from 440.0 nm to 460.0 nm:
          Ed(diffuse) =  4.775E-01     Ed(direct) =  9.658E-01     Ed(total) =  1.443E+00


  Absorption Coefficients of Individual Components at  450.0 nm

  iz   Geo Depth  Opt Depth   Comp 1   Comp 2   Comp 3   Comp 4    Total                                                                                                                                                                                        
          (m)                  (1/m)    (1/m)    (1/m)    (1/m)     (1/m)                                                                                                                                                                                       

   1     0.000      0.000     0.0098   0.0236   0.0000   0.0000   0.0334
   3     5.000      1.545     0.0098   0.0330   0.0000   0.0000   0.0428
   5    10.000      3.609     0.0098   0.0566   0.0000   0.0000   0.0664
   7    15.000      6.560     0.0098   0.0991   0.0000   0.0000   0.1089
  10    20.000      9.691     0.0098   0.0708   0.0000   0.0000   0.0806


  Scattering Coefficients of Individual Components at  450.0 nm

  iz   Geo Depth  Opt Depth   Comp 1   Comp 2   Comp 3   Comp 4    Total                                                                                                                                                                                        
          (m)                  (1/m)    (1/m)    (1/m)    (1/m)     (1/m)                                                                                                                                                                                       

   1     0.000      0.000     0.0040   0.2386   0.0000   0.0000   0.2426
   3     5.000      1.545     0.0040   0.2939   0.0000   0.0000   0.2979
   5    10.000      3.609     0.0040   0.4105   0.0000   0.0000   0.4145
   7    15.000      6.560     0.0040   0.5808   0.0000   0.0000   0.5848
  10    20.000      9.691     0.0040   0.4715   0.0000   0.0000   0.4754


  Backscattering Coefficients of Individual Components at  450.0 nm
  (computed from the scattering coefficients and the phase functions)

  iz   Geo Depth  Opt Depth   Comp 1   Comp 2   Comp 3   Comp 4    Total                                                                                                                                                                                        
          (m)                  (1/m)    (1/m)    (1/m)    (1/m)     (1/m)                                                                                                                                                                                       

   1     0.000      0.000    0.00199  0.00024  0.00000  0.00000  0.00223
   3     5.000      1.545    0.00199  0.00029  0.00000  0.00000  0.00228
   5    10.000      3.609    0.00199  0.00041  0.00000  0.00000  0.00240
   7    15.000      6.560    0.00199  0.00058  0.00000  0.00000  0.00257
  10    20.000      9.691    0.00199  0.00047  0.00000  0.00000  0.00246


  Summary of Inherent Optical Properties at  450.0 nm

  iz  Geo Depth  Opt Depth    total a   total b    total c    albedo   total bb  total bb/b
          (m)                  (1/m)      (1/m)               (1/m)

   1     0.000      0.000      0.0334    0.2426     0.2760    0.8790    0.00223    0.00919
   3     5.000      1.545      0.0428    0.2979     0.3407    0.8743    0.00228    0.00767
   5    10.000      3.609      0.0664    0.4145     0.4810    0.8619    0.00240    0.00579
   7    15.000      6.560      0.1089    0.5848     0.6937    0.8430    0.00257    0.00440
  10    20.000      9.691      0.0806    0.4754     0.5560    0.8551    0.00246    0.00518

     The bottom reflectance at wavelength 450.0 nm is R = 0.055



  Spectral Irradiances [units of W/(m^2 nm)], Mean Cosines (mubars), and Irradiance Reflectance at  450.0 nm

   iz     z(m)     zeta        Eou            Eod             Eo             Eu             Ed      mubar_u  mubar_d    mubar      R = Eu/Ed

             in air         1.7920E-01     2.0841E+00     2.2633E+00     6.2805E-02     1.4432E+00   0.3505   0.6925   0.6099     4.3517E-02

    1     0.00     0.00     5.4915E-02     1.5994E+00     1.6543E+00     2.4158E-02     1.4046E+00   0.4399   0.8782   0.8344     1.7199E-02
    3     5.00     1.54     3.7123E-02     1.2844E+00     1.3215E+00     1.6461E-02     1.1144E+00   0.4434   0.8676   0.8308     1.4772E-02
    5    10.00     3.61     2.3226E-02     9.2950E-01     9.5272E-01     1.1007E-02     8.0116E-01   0.4739   0.8619   0.8294     1.3739E-02
    7    15.00     6.56     1.8069E-02     5.5154E-01     5.6961E-01     9.8264E-03     4.7412E-01   0.5438   0.8596   0.8151     2.0726E-02
   10    20.00     9.69     2.9472E-02     3.1475E-01     3.4423E-01     1.4736E-02     2.6891E-01   0.5000   0.8543   0.7384     5.4800E-02



  Selected Spectral Radiances [units of W/(m^2 sr nm)] and Radiance-Irradiance Ratios at  450.0 nm

  [(theta,phi) are the directions of radiance propagation (theta = 0 is downward, phi = 0 is downwind).]

   iz       z     zeta       Lu(z)        Ld(z)    Lh(z,phi=0)  Lh(z,phi=90) Lh(z,phi=180)    Lu/Ed      Q = Eu/Lu       Lw       Rrs = Lw/Ed
           (m)            (theta=180)   (theta=0)   (theta=90)   (theta=90)   (theta=90)      (1/sr)       (sr)      (theta=180)    (1/sr)

             in air        1.214E-02    1.299E-01    1.554E-01    1.338E-01    2.004E-01    8.411E-03    5.174E+00    3.828E-03    2.652E-03

    1     0.00     0.00    7.088E-03    2.410E-01    1.355E-02    1.294E-02    1.482E-02    5.047E-03    3.408E+00
    3     5.00     1.54    5.068E-03    2.421E-01    9.457E-03    9.676E-03    1.262E-02    4.548E-03    3.248E+00
    5    10.00     3.61    3.771E-03    2.302E-01    5.223E-03    5.570E-03    7.792E-03    4.706E-03    2.919E+00
    7    15.00     6.56    3.662E-03    1.879E-01    2.327E-03    2.582E-03    3.835E-03    7.724E-03    2.683E+00
   10    20.00     9.69    4.691E-03    1.379E-01    3.418E-03    3.519E-03    3.976E-03    1.744E-02    3.142E+00



  Spectral Radiances Just Above the Water Surface (at z = a) [units of W/(m^2 sr nm)] at  450.0 nm
  and f/Q = Lu/[Ed (bb/a)] [units of 1/sr] just below the surface (at z = 0)

   [(Theta,Phi) are the directions of radiance propagation.
   For sky radiances only, theta is measured from 0 at the zenith.
   IF the sun is at phi = 0, solar radiance propagates in the Phi = 180 direction, and then
   Phi = 45 represents the 135 degree viewing angle for minimizing sun glitter.]

   I   J    Theta      Phi  Phi-view      L(sky)      L(water-lv)    L(refl-sky)    L(total up)       Rrs           rho       f/Q(z=0)
           (zenith)                                                                                             (Lrefl/Lsky)   [1/sr]
  10   1      0.0      0.0      0.0    1.29853E-01    3.82773E-03    8.31133E-03    1.21391E-02    2.65219E-03    0.064006    0.075608
   9   1     10.0      0.0    180.0    8.13729E-02    3.94517E-03    2.52796E-03    6.47312E-03    2.73356E-03    0.031066    0.078365
   9   4     10.0     45.0    135.0    8.91630E-02    3.89477E-03    3.11542E-03    7.01020E-03    2.69865E-03    0.034941    0.077485
   9   7     10.0     90.0     90.0    1.19287E-01    3.80441E-03    6.09769E-03    9.90210E-03    2.63603E-03    0.051118    0.075385
   8   1     20.0      0.0    180.0    6.34621E-02    4.00514E-03    1.52081E-03    5.52594E-03    2.77512E-03    0.023964    0.079800
   8   4     20.0     45.0    135.0    7.06448E-02    3.92370E-03    1.82060E-03    5.74431E-03    2.71869E-03    0.025771    0.078745
   8   7     20.0     90.0     90.0    1.03695E-01    3.79938E-03    3.76305E-03    7.56243E-03    2.63255E-03    0.036290    0.074894
   7   1     30.0      0.0    180.0    5.48422E-02    4.04773E-03    1.32944E-03    5.37717E-03    2.80463E-03    0.024241    0.082202
   7   4     30.0     45.0    135.0    6.07934E-02    3.97602E-03    1.48294E-03    5.45895E-03    2.75494E-03    0.024393    0.079839
   7   7     30.0     90.0     90.0    8.90811E-02    3.77378E-03    2.48352E-03    6.25730E-03    2.61481E-03    0.027879    0.074361
   6   1     40.0      0.0    180.0    5.20019E-02    4.08108E-03    1.47211E-03    5.55319E-03    2.82774E-03    0.028309    0.084397
   6   4     40.0     45.0    135.0    5.68748E-02    3.97223E-03    1.59573E-03    5.56796E-03    2.75232E-03    0.028057    0.081074
   6   7     40.0     90.0     90.0    8.00224E-02    3.71254E-03    2.30777E-03    6.02031E-03    2.57238E-03    0.028839    0.074309
   5   1     50.0      0.0    180.0    5.45421E-02    4.07894E-03    2.32836E-03    6.40729E-03    2.82625E-03    0.042689    0.087182
   5   4     50.0     45.0    135.0    5.81267E-02    3.93691E-03    2.41285E-03    6.34976E-03    2.72785E-03    0.041510    0.083215
   5   7     50.0     90.0     90.0    7.73353E-02    3.64317E-03    3.12651E-03    6.76968E-03    2.52431E-03    0.040428    0.075726
   4   1     60.0      0.0    180.0    6.48603E-02    3.99650E-03    5.44625E-03    9.44276E-03    2.76913E-03    0.083969    0.092178
   4   4     60.0     45.0    135.0    6.63289E-02    3.84011E-03    5.36825E-03    9.20837E-03    2.66077E-03    0.080934    0.087817
   4   7     60.0     90.0     90.0    8.18745E-02    3.52917E-03    6.25807E-03    9.78724E-03    2.44532E-03    0.076435    0.080450
   3   1     70.0      0.0    180.0    9.04036E-02    3.68391E-03    1.50031E-02    1.86870E-02    2.55254E-03    0.165957    0.102034
   3   4     70.0     45.0    135.0    8.78559E-02    3.51582E-03    1.43957E-02    1.79115E-02    2.43607E-03    0.163855    0.097627
   3   7     70.0     90.0     90.0    9.80667E-02    3.21634E-03    1.55829E-02    1.87993E-02    2.22857E-03    0.158901    0.091622
   2   1     80.0      0.0    180.0    1.54901E-01    3.08005E-03    3.72926E-02    4.03727E-02    2.13413E-03    0.240751    0.119691
   2   4     80.0     45.0    135.0    1.43425E-01    2.99207E-03    3.61302E-02    3.91223E-02    2.07317E-03    0.251910    0.115705
   2   7     80.0     90.0     90.0    1.42113E-01    2.70969E-03    3.78425E-02    4.05521E-02    1.87751E-03    0.266285    0.112653
   1   1     87.5      0.0    180.0    2.42010E-01    2.46925E-03    6.63770E-02    6.88462E-02    1.71092E-03    0.274274    0.138503
   1   4     87.5     45.0    135.0    2.18139E-01    2.19324E-03    6.58603E-02    6.80536E-02    1.51967E-03    0.301919    0.135529
   1   7     87.5     90.0     90.0    1.98680E-01    2.32919E-03    6.66171E-02    6.89463E-02    1.61387E-03    0.335298    0.134569



  K-functions (units of 1/meter) at  450.0 nm
     (These are accurate local (at depth z) values only when zupper and zlower are closely spaced.)

    zupper    zlower       z           Kou(z)         Kod(z)          Ko(z)          Ku(z)          Kd(z)        Knet(z)         KLu(z)

     0.000     0.010     0.005     6.9436E-02     3.7372E-02     3.8437E-02     7.0363E-02     4.0541E-02     4.0019E-02     6.4974E-02
     5.000     5.010     5.005     9.2792E-02     5.0206E-02     5.1402E-02     8.4797E-02     5.2063E-02     5.1572E-02     6.8651E-02
    10.000    10.010    10.005     9.4857E-02     7.9054E-02     7.9440E-02     7.1461E-02     8.0020E-02     8.0139E-02     4.4293E-02
    15.000    15.010    15.005    -3.2292E-02     1.2944E-01     1.2430E-01    -4.8633E-02     1.2980E-01     1.3358E-01    -4.0350E-02
    19.990    20.000    19.995    -2.6555E-01     9.4040E-02     6.3303E-02    -1.1431E-01     9.6913E-02     1.0914E-01    -5.1765E-02


     Waveband   3 of  15 completed in    0.4 sec.



  * * * * * Output for wavelength band    4 ( 460.0 to  480.0 nm; nominal wavelength =  470.0 nm)  * * * * *
 

  RADTRANX clear-sky spectral irradiances averaged over the band from 460.0 nm to 480.0 nm:
          Ed(diffuse) =  4.745E-01     Ed(direct) =  1.027E+00     Ed(total) =  1.501E+00


  Absorption Coefficients of Individual Components at  470.0 nm

  iz   Geo Depth  Opt Depth   Comp 1   Comp 2   Comp 3   Comp 4    Total                                                                                                                                                                                        
          (m)                  (1/m)    (1/m)    (1/m)    (1/m)     (1/m)                                                                                                                                                                                       

   1     0.000      0.000     0.0110   0.0217   0.0000   0.0000   0.0327
   3     5.000      1.479     0.0110   0.0304   0.0000   0.0000   0.0414
   5    10.000      3.453     0.0110   0.0522   0.0000   0.0000   0.0632
   7    15.000      6.271     0.0110   0.0914   0.0000   0.0000   0.1023
  10    20.000      9.258     0.0110   0.0653   0.0000   0.0000   0.0762


  Scattering Coefficients of Individual Components at  470.0 nm

  iz   Geo Depth  Opt Depth   Comp 1   Comp 2   Comp 3   Comp 4    Total                                                                                                                                                                                        
          (m)                  (1/m)    (1/m)    (1/m)    (1/m)     (1/m)                                                                                                                                                                                       

   1     0.000      0.000     0.0033   0.2284   0.0000   0.0000   0.2317
   3     5.000      1.479     0.0033   0.2814   0.0000   0.0000   0.2847
   5    10.000      3.453     0.0033   0.3931   0.0000   0.0000   0.3964
   7    15.000      6.271     0.0033   0.5561   0.0000   0.0000   0.5594
  10    20.000      9.258     0.0033   0.4514   0.0000   0.0000   0.4547


  Backscattering Coefficients of Individual Components at  470.0 nm
  (computed from the scattering coefficients and the phase functions)

  iz   Geo Depth  Opt Depth   Comp 1   Comp 2   Comp 3   Comp 4    Total                                                                                                                                                                                        
          (m)                  (1/m)    (1/m)    (1/m)    (1/m)     (1/m)                                                                                                                                                                                       

   1     0.000      0.000    0.00165  0.00023  0.00000  0.00000  0.00188
   3     5.000      1.479    0.00165  0.00028  0.00000  0.00000  0.00194
   5    10.000      3.453    0.00165  0.00039  0.00000  0.00000  0.00205
   7    15.000      6.271    0.00165  0.00056  0.00000  0.00000  0.00221
  10    20.000      9.258    0.00165  0.00045  0.00000  0.00000  0.00211


  Summary of Inherent Optical Properties at  470.0 nm

  iz  Geo Depth  Opt Depth    total a   total b    total c    albedo   total bb  total bb/b
          (m)                  (1/m)      (1/m)               (1/m)

   1     0.000      0.000      0.0327    0.2317     0.2645    0.8762    0.00188    0.00813
   3     5.000      1.479      0.0414    0.2847     0.3262    0.8730    0.00194    0.00680
   5    10.000      3.453      0.0632    0.3964     0.4596    0.8625    0.00205    0.00517
   7    15.000      6.271      0.1023    0.5594     0.6618    0.8454    0.00221    0.00395
  10    20.000      9.258      0.0762    0.4547     0.5309    0.8564    0.00211    0.00463

     The bottom reflectance at wavelength 470.0 nm is R = 0.059



  Spectral Irradiances [units of W/(m^2 nm)], Mean Cosines (mubars), and Irradiance Reflectance at  470.0 nm

   iz     z(m)     zeta        Eou            Eod             Eo             Eu             Ed      mubar_u  mubar_d    mubar      R = Eu/Ed

             in air         1.8066E-01     2.1490E+00     2.3297E+00     6.4314E-02     1.5014E+00   0.3560   0.6986   0.6169     4.2836E-02

    1     0.00     0.00     5.5332E-02     1.6609E+00     1.7162E+00     2.4518E-02     1.4616E+00   0.4431   0.8800   0.8373     1.6775E-02
    3     5.00     1.48     3.8592E-02     1.3457E+00     1.3842E+00     1.7349E-02     1.1705E+00   0.4495   0.8699   0.8331     1.4822E-02
    5    10.00     3.45     2.5557E-02     9.9097E-01     1.0165E+00     1.2368E-02     8.5615E-01   0.4839   0.8640   0.8301     1.4446E-02
    7    15.00     6.27     2.1549E-02     6.0796E-01     6.2951E-01     1.1868E-02     5.2348E-01   0.5507   0.8610   0.8127     2.2671E-02
   10    20.00     9.26     3.6031E-02     3.5980E-01     3.9583E-01     1.8015E-02     3.0774E-01   0.5000   0.8553   0.7319     5.8540E-02



  Selected Spectral Radiances [units of W/(m^2 sr nm)] and Radiance-Irradiance Ratios at  470.0 nm

  [(theta,phi) are the directions of radiance propagation (theta = 0 is downward, phi = 0 is downwind).]

   iz       z     zeta       Lu(z)        Ld(z)    Lh(z,phi=0)  Lh(z,phi=90) Lh(z,phi=180)    Lu/Ed      Q = Eu/Lu       Lw       Rrs = Lw/Ed
           (m)            (theta=180)   (theta=0)   (theta=90)   (theta=90)   (theta=90)      (1/sr)       (sr)      (theta=180)    (1/sr)

             in air        1.256E-02    1.291E-01    1.545E-01    1.330E-01    1.992E-01    8.368E-03    5.119E+00    3.955E-03    2.634E-03

    1     0.00     0.00    7.325E-03    2.395E-01    1.341E-02    1.295E-02    1.490E-02    5.012E-03    3.347E+00
    3     5.00     1.48    5.480E-03    2.431E-01    9.543E-03    9.842E-03    1.286E-02    4.682E-03    3.166E+00
    5    10.00     3.45    4.346E-03    2.353E-01    5.456E-03    5.860E-03    8.218E-03    5.077E-03    2.846E+00
    7    15.00     6.27    4.446E-03    1.985E-01    2.569E-03    2.868E-03    4.266E-03    8.494E-03    2.669E+00
   10    20.00     9.26    5.734E-03    1.512E-01    4.121E-03    4.241E-03    4.769E-03    1.863E-02    3.142E+00



  Spectral Radiances Just Above the Water Surface (at z = a) [units of W/(m^2 sr nm)] at  470.0 nm
  and f/Q = Lu/[Ed (bb/a)] [units of 1/sr] just below the surface (at z = 0)

   [(Theta,Phi) are the directions of radiance propagation.
   For sky radiances only, theta is measured from 0 at the zenith.
   IF the sun is at phi = 0, solar radiance propagates in the Phi = 180 direction, and then
   Phi = 45 represents the 135 degree viewing angle for minimizing sun glitter.]

   I   J    Theta      Phi  Phi-view      L(sky)      L(water-lv)    L(refl-sky)    L(total up)       Rrs           rho       f/Q(z=0)
           (zenith)                                                                                             (Lrefl/Lsky)   [1/sr]
  10   1      0.0      0.0      0.0    1.29051E-01    3.95528E-03    8.60896E-03    1.25642E-02    2.63442E-03    0.066710    0.087123
   9   1     10.0      0.0    180.0    8.08708E-02    4.05820E-03    2.54661E-03    6.60482E-03    2.70297E-03    0.031490    0.089820
   9   4     10.0     45.0    135.0    8.86128E-02    4.01111E-03    3.15599E-03    7.16710E-03    2.67160E-03    0.035616    0.088932
   9   7     10.0     90.0     90.0    1.18551E-01    3.92944E-03    6.27268E-03    1.02021E-02    2.61721E-03    0.052911    0.086816
   8   1     20.0      0.0    180.0    6.30705E-02    4.10679E-03    1.51220E-03    5.61898E-03    2.73533E-03    0.023976    0.091037
   8   4     20.0     45.0    135.0    7.02089E-02    4.02973E-03    1.81693E-03    5.84666E-03    2.68401E-03    0.025879    0.089980
   8   7     20.0     90.0     90.0    1.03055E-01    3.92049E-03    3.82048E-03    7.74097E-03    2.61124E-03    0.037072    0.086100
   7   1     30.0      0.0    180.0    5.45038E-02    4.13644E-03    1.32123E-03    5.45768E-03    2.75508E-03    0.024241    0.093106
   7   4     30.0     45.0    135.0    6.04183E-02    4.07137E-03    1.47407E-03    5.54544E-03    2.71174E-03    0.024398    0.090723
   7   7     30.0     90.0     90.0    8.85314E-02    3.88889E-03    2.48316E-03    6.37205E-03    2.59020E-03    0.028048    0.085212
   6   1     40.0      0.0    180.0    5.16810E-02    4.14829E-03    1.46303E-03    5.61132E-03    2.76297E-03    0.028309    0.094851
   6   4     40.0     45.0    135.0    5.65239E-02    4.05024E-03    1.58588E-03    5.63612E-03    2.69767E-03    0.028057    0.091500
   6   7     40.0     90.0     90.0    7.95287E-02    3.81631E-03    2.29482E-03    6.11112E-03    2.54186E-03    0.028855    0.084717
   5   1     50.0      0.0    180.0    5.42056E-02    4.12807E-03    2.31399E-03    6.44206E-03    2.74951E-03    0.042689    0.097168
   5   4     50.0     45.0    135.0    5.77680E-02    3.99912E-03    2.39796E-03    6.39708E-03    2.66362E-03    0.041510    0.093178
   5   7     50.0     90.0     90.0    7.68582E-02    3.73478E-03    3.10721E-03    6.84200E-03    2.48756E-03    0.040428    0.085719
   4   1     60.0      0.0    180.0    6.44601E-02    4.02734E-03    5.41265E-03    9.43999E-03    2.68241E-03    0.083969    0.101932
   4   4     60.0     45.0    135.0    6.59196E-02    3.88587E-03    5.33513E-03    9.22100E-03    2.58819E-03    0.080934    0.097568
   4   7     60.0     90.0     90.0    8.13693E-02    3.60705E-03    6.21946E-03    9.82651E-03    2.40248E-03    0.076435    0.090336
   3   1     70.0      0.0    180.0    8.98458E-02    3.69660E-03    1.49105E-02    1.86071E-02    2.46212E-03    0.165957    0.112320
   3   4     70.0     45.0    135.0    8.73138E-02    3.54351E-03    1.43068E-02    1.78503E-02    2.36016E-03    0.163855    0.107953
   3   7     70.0     90.0     90.0    9.74616E-02    3.27566E-03    1.54868E-02    1.87624E-02    2.18176E-03    0.158901    0.102282
   2   1     80.0      0.0    180.0    1.53945E-01    3.07882E-03    3.70625E-02    4.01414E-02    2.05065E-03    0.240751    0.131822
   2   4     80.0     45.0    135.0    1.42540E-01    3.00456E-03    3.59073E-02    3.89119E-02    2.00119E-03    0.251910    0.127955
   2   7     80.0     90.0     90.0    1.41236E-01    2.75027E-03    3.76090E-02    4.03592E-02    1.83182E-03    0.266285    0.125552
   1   1     87.5      0.0    180.0    2.40516E-01    2.46017E-03    6.59674E-02    6.84276E-02    1.63860E-03    0.274274    0.152826
   1   4     87.5     45.0    135.0    2.16793E-01    2.19553E-03    6.54540E-02    6.76495E-02    1.46233E-03    0.301919    0.150082
   1   7     87.5     90.0     90.0    1.97455E-01    2.35669E-03    6.62061E-02    6.85628E-02    1.56968E-03    0.335298    0.150007



  K-functions (units of 1/meter) at  470.0 nm
     (These are accurate local (at depth z) values only when zupper and zlower are closely spaced.)

    zupper    zlower       z           Kou(z)         Kod(z)          Ko(z)          Ku(z)          Kd(z)        Knet(z)         KLu(z)

     0.000     0.010     0.005     6.4694E-02     3.6161E-02     3.7081E-02     6.4627E-02     3.9135E-02     3.8700E-02     5.7693E-02
     5.000     5.010     5.005     8.4196E-02     4.7895E-02     4.8907E-02     7.4833E-02     4.9726E-02     4.9348E-02     5.7513E-02
    10.000    10.010    10.005     7.9883E-02     7.4395E-02     7.4533E-02     5.5792E-02     7.5453E-02     7.5741E-02     3.0756E-02
    15.000    15.010    15.005    -4.4124E-02     1.2075E-01     1.1510E-01    -5.6988E-02     1.2131E-01     1.2545E-01    -4.5073E-02
    19.990    20.000    19.995    -2.6063E-01     8.8097E-02     5.6405E-02    -1.1186E-01     9.1057E-02     1.0366E-01    -5.1210E-02


     Waveband   4 of  15 completed in    0.3 sec.



  * * * * * Output for wavelength band    5 ( 480.0 to  500.0 nm; nominal wavelength =  490.0 nm)  * * * * *
 

  RADTRANX clear-sky spectral irradiances averaged over the band from 480.0 nm to 500.0 nm:
          Ed(diffuse) =  4.472E-01     Ed(direct) =  1.024E+00     Ed(total) =  1.471E+00


  Absorption Coefficients of Individual Components at  490.0 nm

  iz   Geo Depth  Opt Depth   Comp 1   Comp 2   Comp 3   Comp 4    Total                                                                                                                                                                                        
          (m)                  (1/m)    (1/m)    (1/m)    (1/m)     (1/m)                                                                                                                                                                                       

   1     0.000      0.000     0.0152   0.0187   0.0000   0.0000   0.0340
   3     5.000      1.428     0.0152   0.0262   0.0000   0.0000   0.0415
   5    10.000      3.322     0.0152   0.0450   0.0000   0.0000   0.0602
   7    15.000      6.012     0.0152   0.0788   0.0000   0.0000   0.0940
  10    20.000      8.860     0.0152   0.0562   0.0000   0.0000   0.0715


  Scattering Coefficients of Individual Components at  490.0 nm

  iz   Geo Depth  Opt Depth   Comp 1   Comp 2   Comp 3   Comp 4    Total                                                                                                                                                                                        
          (m)                  (1/m)    (1/m)    (1/m)    (1/m)     (1/m)                                                                                                                                                                                       

   1     0.000      0.000     0.0028   0.2191   0.0000   0.0000   0.2219
   3     5.000      1.428     0.0028   0.2699   0.0000   0.0000   0.2727
   5    10.000      3.322     0.0028   0.3770   0.0000   0.0000   0.3798
   7    15.000      6.012     0.0028   0.5334   0.0000   0.0000   0.5362
  10    20.000      8.860     0.0028   0.4330   0.0000   0.0000   0.4358


  Backscattering Coefficients of Individual Components at  490.0 nm
  (computed from the scattering coefficients and the phase functions)

  iz   Geo Depth  Opt Depth   Comp 1   Comp 2   Comp 3   Comp 4    Total                                                                                                                                                                                        
          (m)                  (1/m)    (1/m)    (1/m)    (1/m)     (1/m)                                                                                                                                                                                       

   1     0.000      0.000    0.00139  0.00022  0.00000  0.00000  0.00161
   3     5.000      1.428    0.00139  0.00027  0.00000  0.00000  0.00166
   5    10.000      3.322    0.00139  0.00038  0.00000  0.00000  0.00176
   7    15.000      6.012    0.00139  0.00053  0.00000  0.00000  0.00192
  10    20.000      8.860    0.00139  0.00043  0.00000  0.00000  0.00182


  Summary of Inherent Optical Properties at  490.0 nm

  iz  Geo Depth  Opt Depth    total a   total b    total c    albedo   total bb  total bb/b
          (m)                  (1/m)      (1/m)               (1/m)

   1     0.000      0.000      0.0340    0.2219     0.2558    0.8672    0.00161    0.00724
   3     5.000      1.428      0.0415    0.2727     0.3142    0.8680    0.00166    0.00608
   5    10.000      3.322      0.0602    0.3798     0.4400    0.8631    0.00176    0.00465
   7    15.000      6.012      0.0940    0.5362     0.6302    0.8509    0.00192    0.00358
  10    20.000      8.860      0.0715    0.4358     0.5072    0.8591    0.00182    0.00418

     The bottom reflectance at wavelength 490.0 nm is R = 0.075



  Spectral Irradiances [units of W/(m^2 nm)], Mean Cosines (mubars), and Irradiance Reflectance at  490.0 nm

   iz     z(m)     zeta        Eou            Eod             Eo             Eu             Ed      mubar_u  mubar_d    mubar      R = Eu/Ed

             in air         1.7190E-01     2.0903E+00     2.2622E+00     6.2017E-02     1.4711E+00   0.3608   0.7038   0.6229     4.2157E-02

    1     0.00     0.00     4.9504E-02     1.6221E+00     1.6716E+00     2.2558E-02     1.4316E+00   0.4557   0.8826   0.8429     1.5757E-02
    3     5.00     1.43     3.6613E-02     1.3114E+00     1.3480E+00     1.7165E-02     1.1451E+00   0.4688   0.8732   0.8368     1.4990E-02
    5    10.00     3.32     2.7128E-02     9.7701E-01     1.0041E+00     1.3859E-02     8.4705E-01   0.5109   0.8670   0.8298     1.6361E-02
    7    15.00     6.01     2.6830E-02     6.2212E-01     6.4895E-01     1.5293E-02     5.3685E-01   0.5700   0.8629   0.8037     2.8486E-02
   10    20.00     8.86     4.9140E-02     3.8393E-01     4.3307E-01     2.4570E-02     3.2879E-01   0.5000   0.8564   0.7025     7.4730E-02



  Selected Spectral Radiances [units of W/(m^2 sr nm)] and Radiance-Irradiance Ratios at  490.0 nm

  [(theta,phi) are the directions of radiance propagation (theta = 0 is downward, phi = 0 is downwind).]

   iz       z     zeta       Lu(z)        Ld(z)    Lh(z,phi=0)  Lh(z,phi=90) Lh(z,phi=180)    Lu/Ed      Q = Eu/Lu       Lw       Rrs = Lw/Ed
           (m)            (theta=180)   (theta=0)   (theta=90)   (theta=90)   (theta=90)      (1/sr)       (sr)      (theta=180)    (1/sr)

             in air        1.227E-02    1.216E-01    1.455E-01    1.253E-01    1.877E-01    8.338E-03    5.056E+00    3.861E-03    2.624E-03

    1     0.00     0.00    7.152E-03    2.257E-01    1.148E-02    1.117E-02    1.302E-02    4.995E-03    3.154E+00
    3     5.00     1.43    5.829E-03    2.290E-01    8.258E-03    8.598E-03    1.143E-02    5.090E-03    2.945E+00
    5    10.00     3.32    5.197E-03    2.239E-01    4.998E-03    5.426E-03    7.741E-03    6.136E-03    2.666E+00
    7    15.00     6.01    5.863E-03    1.955E-01    2.605E-03    2.935E-03    4.416E-03    1.092E-02    2.608E+00
   10    20.00     8.86    7.821E-03    1.551E-01    5.344E-03    5.478E-03    6.054E-03    2.379E-02    3.142E+00



  Spectral Radiances Just Above the Water Surface (at z = a) [units of W/(m^2 sr nm)] at  490.0 nm
  and f/Q = Lu/[Ed (bb/a)] [units of 1/sr] just below the surface (at z = 0)

   [(Theta,Phi) are the directions of radiance propagation.
   For sky radiances only, theta is measured from 0 at the zenith.
   IF the sun is at phi = 0, solar radiance propagates in the Phi = 180 direction, and then
   Phi = 45 represents the 135 degree viewing angle for minimizing sun glitter.]

   I   J    Theta      Phi  Phi-view      L(sky)      L(water-lv)    L(refl-sky)    L(total up)       Rrs           rho       f/Q(z=0)
           (zenith)                                                                                             (Lrefl/Lsky)   [1/sr]
  10   1      0.0      0.0      0.0    1.21614E-01    3.86052E-03    8.40542E-03    1.22659E-02    2.62424E-03    0.069116    0.105643
   9   1     10.0      0.0    180.0    7.62101E-02    3.93929E-03    2.42857E-03    6.36786E-03    2.67779E-03    0.031867    0.108196
   9   4     10.0     45.0    135.0    8.35059E-02    3.89795E-03    3.02425E-03    6.92220E-03    2.64969E-03    0.036216    0.107265
   9   7     10.0     90.0     90.0    1.11718E-01    3.82905E-03    6.08948E-03    9.91854E-03    2.60286E-03    0.054507    0.105047
   8   1     20.0      0.0    180.0    5.94357E-02    3.96490E-03    1.42570E-03    5.39060E-03    2.69520E-03    0.023987    0.108708
   8   4     20.0     45.0    135.0    6.61627E-02    3.89639E-03    1.71856E-03    5.61495E-03    2.64863E-03    0.025975    0.107607
   8   7     20.0     90.0     90.0    9.71157E-02    3.80748E-03    3.66793E-03    7.47541E-03    2.58819E-03    0.037769    0.103544
   7   1     30.0      0.0    180.0    5.13627E-02    3.96804E-03    1.24509E-03    5.21313E-03    2.69733E-03    0.024241    0.109596
   7   4     30.0     45.0    135.0    5.69363E-02    3.91291E-03    1.38936E-03    5.30228E-03    2.65986E-03    0.024402    0.107098
   7   7     30.0     90.0     90.0    8.34292E-02    3.75931E-03    2.35261E-03    6.11191E-03    2.55545E-03    0.028199    0.101340
   6   1     40.0      0.0    180.0    4.87026E-02    3.93660E-03    1.37871E-03    5.31531E-03    2.67596E-03    0.028309    0.109580
   6   4     40.0     45.0    135.0    5.32663E-02    3.85432E-03    1.49449E-03    5.34881E-03    2.62004E-03    0.028057    0.106074
   6   7     40.0     90.0     90.0    7.49454E-02    3.65784E-03    2.16365E-03    5.82149E-03    2.48647E-03    0.028870    0.099019
   5   1     50.0      0.0    180.0    5.10816E-02    3.87769E-03    2.18063E-03    6.05832E-03    2.63592E-03    0.042689    0.109644
   5   4     50.0     45.0    135.0    5.44388E-02    3.76851E-03    2.25976E-03    6.02827E-03    2.56170E-03    0.041510    0.105486
   5   7     50.0     90.0     90.0    7.24287E-02    3.54683E-03    2.92814E-03    6.47497E-03    2.41101E-03    0.040428    0.097795
   4   1     60.0      0.0    180.0    6.07452E-02    3.74286E-03    5.10071E-03    8.84357E-03    2.54427E-03    0.083969    0.111996
   4   4     60.0     45.0    135.0    6.21206E-02    3.62368E-03    5.02766E-03    8.65134E-03    2.46325E-03    0.080934    0.107484
   4   7     60.0     90.0     90.0    7.66799E-02    3.39085E-03    5.86102E-03    9.25187E-03    2.30498E-03    0.076435    0.100163
   3   1     70.0      0.0    180.0    8.46679E-02    3.39505E-03    1.40512E-02    1.74463E-02    2.30784E-03    0.165957    0.120559
   3   4     70.0     45.0    135.0    8.22818E-02    3.26537E-03    1.34823E-02    1.67477E-02    2.21969E-03    0.163855    0.116112
   3   7     70.0     90.0     90.0    9.18448E-02    3.04264E-03    1.45943E-02    1.76369E-02    2.06828E-03    0.158901    0.110642
   2   1     80.0      0.0    180.0    1.45073E-01    2.79581E-03    3.49266E-02    3.77224E-02    1.90049E-03    0.240751    0.139361
   2   4     80.0     45.0    135.0    1.34325E-01    2.73724E-03    3.38379E-02    3.65752E-02    1.86068E-03    0.251910    0.135537
   2   7     80.0     90.0     90.0    1.33096E-01    2.52500E-03    3.54415E-02    3.79665E-02    1.71641E-03    0.266285    0.133787
   1   1     87.5      0.0    180.0    2.26655E-01    2.21042E-03    6.21656E-02    6.43760E-02    1.50257E-03    0.274274    0.160563
   1   4     87.5     45.0    135.0    2.04299E-01    1.97929E-03    6.16818E-02    6.36611E-02    1.34545E-03    0.301919    0.158028
   1   7     87.5     90.0     90.0    1.86075E-01    2.14015E-03    6.23905E-02    6.45307E-02    1.45480E-03    0.335298    0.158961



  K-functions (units of 1/meter) at  490.0 nm
     (These are accurate local (at depth z) values only when zupper and zlower are closely spaced.)

    zupper    zlower       z           Kou(z)         Kod(z)          Ko(z)          Ku(z)          Kd(z)        Knet(z)         KLu(z)

     0.000     0.010     0.005     5.6650E-02     3.7568E-02     3.8133E-02     5.3987E-02     4.0113E-02     3.9890E-02     4.4021E-02
     5.000     5.010     5.005     6.7231E-02     4.7485E-02     4.8021E-02     5.5200E-02     4.9246E-02     4.9155E-02     3.6592E-02
    10.000    10.010    10.005     5.0010E-02     7.0216E-02     6.9670E-02     2.5464E-02     7.1424E-02     7.2189E-02     6.1379E-03
    15.000    15.010    15.005    -6.9095E-02     1.1017E-01     1.0276E-01    -7.5780E-02     1.1100E-01     1.1648E-01    -5.6402E-02
    19.990    20.000    19.995    -2.7733E-01     8.1387E-02     4.0747E-02    -1.1785E-01     8.4932E-02     1.0129E-01    -5.5081E-02


     Waveband   5 of  15 completed in    0.3 sec.



  * * * * * Output for wavelength band    6 ( 500.0 to  520.0 nm; nominal wavelength =  510.0 nm)  * * * * *
 

  RADTRANX clear-sky spectral irradiances averaged over the band from 500.0 nm to 520.0 nm:
          Ed(diffuse) =  4.208E-01     Ed(direct) =  1.011E+00     Ed(total) =  1.431E+00


  Absorption Coefficients of Individual Components at  510.0 nm

  iz   Geo Depth  Opt Depth   Comp 1   Comp 2   Comp 3   Comp 4    Total                                                                                                                                                                                        
          (m)                  (1/m)    (1/m)    (1/m)    (1/m)     (1/m)                                                                                                                                                                                       

   1     0.000      0.000     0.0324   0.0155   0.0000   0.0000   0.0479
   3     5.000      1.444     0.0324   0.0216   0.0000   0.0000   0.0540
   5    10.000      3.327     0.0324   0.0371   0.0000   0.0000   0.0695
   7    15.000      5.956     0.0324   0.0649   0.0000   0.0000   0.0973
  10    20.000      8.734     0.0324   0.0464   0.0000   0.0000   0.0788


  Scattering Coefficients of Individual Components at  510.0 nm

  iz   Geo Depth  Opt Depth   Comp 1   Comp 2   Comp 3   Comp 4    Total                                                                                                                                                                                        
          (m)                  (1/m)    (1/m)    (1/m)    (1/m)     (1/m)                                                                                                                                                                                       

   1     0.000      0.000     0.0023   0.2105   0.0000   0.0000   0.2129
   3     5.000      1.444     0.0023   0.2593   0.0000   0.0000   0.2617
   5    10.000      3.327     0.0023   0.3622   0.0000   0.0000   0.3646
   7    15.000      5.956     0.0023   0.5125   0.0000   0.0000   0.5148
  10    20.000      8.734     0.0023   0.4160   0.0000   0.0000   0.4183


  Backscattering Coefficients of Individual Components at  510.0 nm
  (computed from the scattering coefficients and the phase functions)

  iz   Geo Depth  Opt Depth   Comp 1   Comp 2   Comp 3   Comp 4    Total                                                                                                                                                                                        
          (m)                  (1/m)    (1/m)    (1/m)    (1/m)     (1/m)                                                                                                                                                                                       

   1     0.000      0.000    0.00117  0.00021  0.00000  0.00000  0.00138
   3     5.000      1.444    0.00117  0.00026  0.00000  0.00000  0.00143
   5    10.000      3.327    0.00117  0.00036  0.00000  0.00000  0.00153
   7    15.000      5.956    0.00117  0.00051  0.00000  0.00000  0.00168
  10    20.000      8.734    0.00117  0.00042  0.00000  0.00000  0.00159


  Summary of Inherent Optical Properties at  510.0 nm

  iz  Geo Depth  Opt Depth    total a   total b    total c    albedo   total bb  total bb/b
          (m)                  (1/m)      (1/m)               (1/m)

   1     0.000      0.000      0.0479    0.2129     0.2607    0.8164    0.00138    0.00649
   3     5.000      1.444      0.0540    0.2617     0.3157    0.8288    0.00143    0.00547
   5    10.000      3.327      0.0695    0.3646     0.4341    0.8399    0.00153    0.00421
   7    15.000      5.956      0.0973    0.5148     0.6121    0.8411    0.00168    0.00327
  10    20.000      8.734      0.0788    0.4183     0.4971    0.8416    0.00159    0.00380

     The bottom reflectance at wavelength 510.0 nm is R = 0.102



  Spectral Irradiances [units of W/(m^2 nm)], Mean Cosines (mubars), and Irradiance Reflectance at  510.0 nm

   iz     z(m)     zeta        Eou            Eod             Eo             Eu             Ed      mubar_u  mubar_d    mubar      R = Eu/Ed

             in air         1.5920E-01     2.0216E+00     2.1808E+00     5.7381E-02     1.4313E+00   0.3604   0.7080   0.6300     4.0089E-02

    1     0.00     0.00     3.4454E-02     1.5666E+00     1.6011E+00     1.6323E-02     1.3903E+00   0.4738   0.8874   0.8582     1.1741E-02
    3     5.00     1.44     2.6452E-02     1.1758E+00     1.2023E+00     1.3078E-02     1.0345E+00   0.4944   0.8798   0.8496     1.2642E-02
    5    10.00     3.33     2.1748E-02     8.2588E-01     8.4763E-01     1.1817E-02     7.2173E-01   0.5434   0.8739   0.8375     1.6373E-02
    7    15.00     5.96     2.5178E-02     5.1028E-01     5.3545E-01     1.4983E-02     4.4332E-01   0.5951   0.8688   0.8000     3.3796E-02
   10    20.00     8.73     5.3845E-02     3.0704E-01     3.6089E-01     2.6922E-02     2.6459E-01   0.5000   0.8618   0.6586     1.0175E-01



  Selected Spectral Radiances [units of W/(m^2 sr nm)] and Radiance-Irradiance Ratios at  510.0 nm

  [(theta,phi) are the directions of radiance propagation (theta = 0 is downward, phi = 0 is downwind).]

   iz       z     zeta       Lu(z)        Ld(z)    Lh(z,phi=0)  Lh(z,phi=90) Lh(z,phi=180)    Lu/Ed      Q = Eu/Lu       Lw       Rrs = Lw/Ed
           (m)            (theta=180)   (theta=0)   (theta=90)   (theta=90)   (theta=90)      (1/sr)       (sr)      (theta=180)    (1/sr)

             in air        1.116E-02    1.145E-01    1.367E-01    1.177E-01    1.764E-01    7.795E-03    5.143E+00    3.003E-03    2.098E-03

    1     0.00     0.00    5.565E-03    2.124E-01    7.550E-03    7.386E-03    8.780E-03    4.003E-03    2.933E+00
    3     5.00     1.44    4.841E-03    2.017E-01    5.166E-03    5.445E-03    7.431E-03    4.679E-03    2.702E+00
    5    10.00     3.33    4.794E-03    1.868E-01    3.259E-03    3.581E-03    5.226E-03    6.642E-03    2.465E+00
    7    15.00     5.96    5.984E-03    1.583E-01    1.858E-03    2.113E-03    3.219E-03    1.350E-02    2.504E+00
   10    20.00     8.73    8.570E-03    1.227E-01    5.446E-03    5.543E-03    5.948E-03    3.239E-02    3.142E+00



  Spectral Radiances Just Above the Water Surface (at z = a) [units of W/(m^2 sr nm)] at  510.0 nm
  and f/Q = Lu/[Ed (bb/a)] [units of 1/sr] just below the surface (at z = 0)

   [(Theta,Phi) are the directions of radiance propagation.
   For sky radiances only, theta is measured from 0 at the zenith.
   IF the sun is at phi = 0, solar radiance propagates in the Phi = 180 direction, and then
   Phi = 45 represents the 135 degree viewing angle for minimizing sun glitter.]

   I   J    Theta      Phi  Phi-view      L(sky)      L(water-lv)    L(refl-sky)    L(total up)       Rrs           rho       f/Q(z=0)
           (zenith)                                                                                             (Lrefl/Lsky)   [1/sr]
  10   1      0.0      0.0      0.0    1.14452E-01    3.00285E-03    8.15431E-03    1.11572E-02    2.09793E-03    0.071247    0.138565
   9   1     10.0      0.0    180.0    7.17217E-02    3.05178E-03    2.30949E-03    5.36127E-03    2.13212E-03    0.032201    0.141204
   9   4     10.0     45.0    135.0    7.85879E-02    3.02132E-03    2.88794E-03    5.90926E-03    2.11084E-03    0.036748    0.140071
   9   7     10.0     90.0     90.0    1.05139E-01    2.97170E-03    5.87948E-03    8.85118E-03    2.07617E-03    0.055921    0.137379
   8   1     20.0      0.0    180.0    5.59352E-02    3.05467E-03    1.34227E-03    4.39694E-03    2.13414E-03    0.023997    0.140521
   8   4     20.0     45.0    135.0    6.22660E-02    3.00432E-03    1.62263E-03    4.62695E-03    2.09896E-03    0.026060    0.139231
   8   7     20.0     90.0     90.0    9.13961E-02    2.94163E-03    3.50829E-03    6.44992E-03    2.05516E-03    0.038386    0.134303
   7   1     30.0      0.0    180.0    4.83377E-02    3.03610E-03    1.17176E-03    4.20786E-03    2.12116E-03    0.024241    0.139527
   7   4     30.0     45.0    135.0    5.35830E-02    2.99700E-03    1.30774E-03    4.30474E-03    2.09384E-03    0.024406    0.136512
   7   7     30.0     90.0     90.0    7.85157E-02    2.88661E-03    2.22451E-03    5.11112E-03    2.01672E-03    0.028332    0.129557
   6   1     40.0      0.0    180.0    4.58342E-02    2.97725E-03    1.29751E-03    4.27476E-03    2.08005E-03    0.028309    0.136571
   6   4     40.0     45.0    135.0    5.01292E-02    2.91858E-03    1.40647E-03    4.32505E-03    2.03906E-03    0.028057    0.132354
   6   7     40.0     90.0     90.0    7.05314E-02    2.77783E-03    2.03712E-03    4.81495E-03    1.94072E-03    0.028882    0.123894
   5   1     50.0      0.0    180.0    4.80732E-02    2.89937E-03    2.05220E-03    4.95156E-03    2.02563E-03    0.042689    0.132972
   5   4     50.0     45.0    135.0    5.12326E-02    2.82116E-03    2.12667E-03    4.94784E-03    1.97100E-03    0.041510    0.128022
   5   7     50.0     90.0     90.0    6.81630E-02    2.66293E-03    2.75569E-03    5.41862E-03    1.86045E-03    0.040428    0.118906
   4   1     60.0      0.0    180.0    5.71676E-02    2.76452E-03    4.80030E-03    7.56482E-03    1.93142E-03    0.083969    0.131580
   4   4     60.0     45.0    135.0    5.84620E-02    2.67957E-03    4.73155E-03    7.41113E-03    1.87208E-03    0.080934    0.126290
   4   7     60.0     90.0     90.0    7.21638E-02    2.51417E-03    5.51584E-03    8.03001E-03    1.75652E-03    0.076435    0.117779
   3   1     70.0      0.0    180.0    7.96814E-02    2.47373E-03    1.32237E-02    1.56974E-02    1.72827E-03    0.165957    0.136918
   3   4     70.0     45.0    135.0    7.74358E-02    2.38153E-03    1.26883E-02    1.50698E-02    1.66385E-03    0.163855    0.131836
   3   7     70.0     90.0     90.0    8.64356E-02    2.22434E-03    1.37347E-02    1.59591E-02    1.55403E-03    0.158901    0.125732
   2   1     80.0      0.0    180.0    1.36529E-01    2.01033E-03    3.28696E-02    3.48799E-02    1.40451E-03    0.240751    0.152564
   2   4     80.0     45.0    135.0    1.26414E-01    1.96973E-03    3.18450E-02    3.38148E-02    1.37615E-03    0.251910    0.148421
   2   7     80.0     90.0     90.0    1.25258E-01    1.82061E-03    3.33542E-02    3.51748E-02    1.27197E-03    0.266285    0.146993
   1   1     87.5      0.0    180.0    2.13306E-01    1.56963E-03    5.85044E-02    6.00740E-02    1.09662E-03    0.274274    0.172109
   1   4     87.5     45.0    135.0    1.92267E-01    1.40680E-03    5.80490E-02    5.94558E-02    9.82854E-04    0.301919    0.169609
   1   7     87.5     90.0     90.0    1.75116E-01    1.52352E-03    5.87160E-02    6.02396E-02    1.06441E-03    0.335298    0.171839



  K-functions (units of 1/meter) at  510.0 nm
     (These are accurate local (at depth z) values only when zupper and zlower are closely spaced.)

    zupper    zlower       z           Kou(z)         Kod(z)          Ko(z)          Ku(z)          Kd(z)        Knet(z)         KLu(z)

     0.000     0.010     0.005     5.4523E-02     5.3535E-02     5.3557E-02     4.8715E-02     5.5330E-02     5.5409E-02     3.5408E-02
     5.000     5.010     5.005     5.2559E-02     6.1433E-02     6.1238E-02     3.8543E-02     6.2912E-02     6.3224E-02     1.8835E-02
    10.000    10.010    10.005     2.0671E-02     7.9923E-02     7.8402E-02    -3.1216E-03     8.1183E-02     8.2587E-02    -1.6968E-02
    15.000    15.010    15.005    -9.5878E-02     1.1264E-01     1.0282E-01    -9.8154E-02     1.1378E-01     1.2121E-01    -7.1756E-02
    19.990    20.000    19.995    -3.3985E-01     8.7850E-02     2.4153E-02    -1.4443E-01     9.2331E-02     1.1911E-01    -6.8770E-02


     Waveband   6 of  15 completed in    0.3 sec.



  * * * * * Output for wavelength band    7 ( 520.0 to  540.0 nm; nominal wavelength =  530.0 nm)  * * * * *
 

  RADTRANX clear-sky spectral irradiances averaged over the band from 520.0 nm to 540.0 nm:
          Ed(diffuse) =  4.128E-01     Ed(direct) =  1.033E+00     Ed(total) =  1.445E+00


  Absorption Coefficients of Individual Components at  530.0 nm

  iz   Geo Depth  Opt Depth   Comp 1   Comp 2   Comp 3   Comp 4    Total                                                                                                                                                                                        
          (m)                  (1/m)    (1/m)    (1/m)    (1/m)     (1/m)                                                                                                                                                                                       

   1     0.000      0.000     0.0438   0.0118   0.0000   0.0000   0.0557
   3     5.000      1.433     0.0438   0.0166   0.0000   0.0000   0.0604
   5    10.000      3.279     0.0438   0.0284   0.0000   0.0000   0.0723
   7    15.000      5.820     0.0438   0.0498   0.0000   0.0000   0.0936
  10    20.000      8.501     0.0438   0.0355   0.0000   0.0000   0.0794


  Scattering Coefficients of Individual Components at  530.0 nm

  iz   Geo Depth  Opt Depth   Comp 1   Comp 2   Comp 3   Comp 4    Total                                                                                                                                                                                        
          (m)                  (1/m)    (1/m)    (1/m)    (1/m)     (1/m)                                                                                                                                                                                       

   1     0.000      0.000     0.0020   0.2026   0.0000   0.0000   0.2046
   3     5.000      1.433     0.0020   0.2496   0.0000   0.0000   0.2516
   5    10.000      3.279     0.0020   0.3486   0.0000   0.0000   0.3506
   7    15.000      5.820     0.0020   0.4932   0.0000   0.0000   0.4951
  10    20.000      8.501     0.0020   0.4003   0.0000   0.0000   0.4023


  Backscattering Coefficients of Individual Components at  530.0 nm
  (computed from the scattering coefficients and the phase functions)

  iz   Geo Depth  Opt Depth   Comp 1   Comp 2   Comp 3   Comp 4    Total                                                                                                                                                                                        
          (m)                  (1/m)    (1/m)    (1/m)    (1/m)     (1/m)                                                                                                                                                                                       

   1     0.000      0.000    0.00100  0.00020  0.00000  0.00000  0.00120
   3     5.000      1.433    0.00100  0.00025  0.00000  0.00000  0.00125
   5    10.000      3.279    0.00100  0.00035  0.00000  0.00000  0.00135
   7    15.000      5.820    0.00100  0.00049  0.00000  0.00000  0.00149
  10    20.000      8.501    0.00100  0.00040  0.00000  0.00000  0.00140


  Summary of Inherent Optical Properties at  530.0 nm

  iz  Geo Depth  Opt Depth    total a   total b    total c    albedo   total bb  total bb/b
          (m)                  (1/m)      (1/m)               (1/m)

   1     0.000      0.000      0.0557    0.2046     0.2603    0.7860    0.00120    0.00586
   3     5.000      1.433      0.0604    0.2516     0.3120    0.8063    0.00125    0.00496
   5    10.000      3.279      0.0723    0.3506     0.4229    0.8291    0.00135    0.00384
   7    15.000      5.820      0.0936    0.4951     0.5888    0.8410    0.00149    0.00301
  10    20.000      8.501      0.0794    0.4023     0.4817    0.8352    0.00140    0.00347

     The bottom reflectance at wavelength 530.0 nm is R = 0.118



  Spectral Irradiances [units of W/(m^2 nm)], Mean Cosines (mubars), and Irradiance Reflectance at  530.0 nm

   iz     z(m)     zeta        Eou            Eod             Eo             Eu             Ed      mubar_u  mubar_d    mubar      R = Eu/Ed

             in air         1.5584E-01     2.0310E+00     2.1869E+00     5.6459E-02     1.4455E+00   0.3623   0.7117   0.6352     3.9059E-02

    1     0.00     0.00     2.8739E-02     1.5765E+00     1.6052E+00     1.4017E-02     1.4030E+00   0.4877   0.8900   0.8653     9.9905E-03
    3     5.00     1.43     2.3203E-02     1.1376E+00     1.1608E+00     1.1967E-02     1.0050E+00   0.5157   0.8834   0.8555     1.1907E-02
    5    10.00     3.28     2.1103E-02     7.8035E-01     8.0145E-01     1.1947E-02     6.8487E-01   0.5661   0.8776   0.8396     1.7444E-02
    7    15.00     5.82     2.6960E-02     4.8530E-01     5.1226E-01     1.6320E-02     4.2306E-01   0.6053   0.8718   0.7940     3.8575E-02
   10    20.00     8.50     6.0085E-02     2.9558E-01     3.5566E-01     3.0042E-02     2.5546E-01   0.5000   0.8643   0.6338     1.1760E-01



  Selected Spectral Radiances [units of W/(m^2 sr nm)] and Radiance-Irradiance Ratios at  530.0 nm

  [(theta,phi) are the directions of radiance propagation (theta = 0 is downward, phi = 0 is downwind).]

   iz       z     zeta       Lu(z)        Ld(z)    Lh(z,phi=0)  Lh(z,phi=90) Lh(z,phi=180)    Lu/Ed      Q = Eu/Lu       Lw       Rrs = Lw/Ed
           (m)            (theta=180)   (theta=0)   (theta=90)   (theta=90)   (theta=90)      (1/sr)       (sr)      (theta=180)    (1/sr)

             in air        1.094E-02    1.123E-01    1.340E-01    1.153E-01    1.729E-01    7.570E-03    5.160E+00    2.728E-03    1.887E-03

    1     0.00     0.00    5.057E-03    2.083E-01    6.018E-03    5.932E-03    7.165E-03    3.604E-03    2.772E+00
    3     5.00     1.43    4.710E-03    1.909E-01    4.022E-03    4.286E-03    5.967E-03    4.686E-03    2.541E+00
    5    10.00     3.28    5.046E-03    1.727E-01    2.663E-03    2.958E-03    4.391E-03    7.368E-03    2.367E+00
    7    15.00     5.82    6.589E-03    1.469E-01    1.684E-03    1.929E-03    2.964E-03    1.557E-02    2.477E+00
   10    20.00     8.50    9.563E-03    1.152E-01    5.924E-03    6.014E-03    6.388E-03    3.743E-02    3.142E+00



  Spectral Radiances Just Above the Water Surface (at z = a) [units of W/(m^2 sr nm)] at  530.0 nm
  and f/Q = Lu/[Ed (bb/a)] [units of 1/sr] just below the surface (at z = 0)

   [(Theta,Phi) are the directions of radiance propagation.
   For sky radiances only, theta is measured from 0 at the zenith.
   IF the sun is at phi = 0, solar radiance propagates in the Phi = 180 direction, and then
   Phi = 45 represents the 135 degree viewing angle for minimizing sun glitter.]

   I   J    Theta      Phi  Phi-view      L(sky)      L(water-lv)    L(refl-sky)    L(total up)       Rrs           rho       f/Q(z=0)
           (zenith)                                                                                             (Lrefl/Lsky)   [1/sr]
  10   1      0.0      0.0      0.0    1.12267E-01    2.72817E-03    8.21443E-03    1.09426E-02    1.88737E-03    0.073169    0.167340
   9   1     10.0      0.0    180.0    7.03529E-02    2.76152E-03    2.28659E-03    5.04811E-03    1.91045E-03    0.032502    0.169695
   9   4     10.0     45.0    135.0    7.70880E-02    2.73584E-03    2.86980E-03    5.60564E-03    1.89268E-03    0.037228    0.168466
   9   7     10.0     90.0     90.0    1.03132E-01    2.69543E-03    5.89874E-03    8.59417E-03    1.86472E-03    0.057196    0.165552
   8   1     20.0      0.0    180.0    5.48677E-02    2.75128E-03    1.31713E-03    4.06841E-03    1.90336E-03    0.024006    0.167555
   8   4     20.0     45.0    135.0    6.10777E-02    2.70855E-03    1.59634E-03    4.30489E-03    1.87380E-03    0.026136    0.166185
   8   7     20.0     90.0     90.0    8.96518E-02    2.65922E-03    3.49120E-03    6.15042E-03    1.83967E-03    0.038942    0.160855
   7   1     30.0      0.0    180.0    4.74152E-02    2.71887E-03    1.14940E-03    3.86827E-03    1.88094E-03    0.024241    0.164207
   7   4     30.0     45.0    135.0    5.25604E-02    2.68713E-03    1.28296E-03    3.97009E-03    1.85898E-03    0.024409    0.160950
   7   7     30.0     90.0     90.0    7.70172E-02    2.59743E-03    2.19131E-03    4.78875E-03    1.79693E-03    0.028452    0.153454
   6   1     40.0      0.0    180.0    4.49595E-02    2.63982E-03    1.27275E-03    3.91257E-03    1.82626E-03    0.028309    0.157823
   6   4     40.0     45.0    135.0    4.91725E-02    2.59241E-03    1.37963E-03    3.97204E-03    1.79345E-03    0.028057    0.153282
   6   7     40.0     90.0     90.0    6.91854E-02    2.47837E-03    1.99904E-03    4.47741E-03    1.71456E-03    0.028894    0.144217
   5   1     50.0      0.0    180.0    4.71557E-02    2.54590E-03    2.01303E-03    4.55893E-03    1.76127E-03    0.042689    0.150012
   5   4     50.0     45.0    135.0    5.02548E-02    2.48222E-03    2.08609E-03    4.56830E-03    1.71722E-03    0.041510    0.144720
   5   7     50.0     90.0     90.0    6.68622E-02    2.35432E-03    2.70310E-03    5.05742E-03    1.62874E-03    0.040428    0.135055
   4   1     60.0      0.0    180.0    5.60766E-02    2.40201E-03    4.70869E-03    7.11070E-03    1.66173E-03    0.083969    0.144284
   4   4     60.0     45.0    135.0    5.73462E-02    2.33322E-03    4.64125E-03    6.97447E-03    1.61414E-03    0.080934    0.138693
   4   7     60.0     90.0     90.0    7.07866E-02    2.20018E-03    5.41057E-03    7.61074E-03    1.52210E-03    0.076435    0.129850
   3   1     70.0      0.0    180.0    7.81607E-02    2.12400E-03    1.29713E-02    1.50953E-02    1.46941E-03    0.165957    0.146128
   3   4     70.0     45.0    135.0    7.59580E-02    2.04915E-03    1.24461E-02    1.44953E-02    1.41762E-03    0.163855    0.140863
   3   7     70.0     90.0     90.0    8.47860E-02    1.92342E-03    1.34726E-02    1.53960E-02    1.33064E-03    0.158901    0.134837
   2   1     80.0      0.0    180.0    1.33924E-01    1.70602E-03    3.22423E-02    3.39483E-02    1.18024E-03    0.240751    0.159429
   2   4     80.0     45.0    135.0    1.24002E-01    1.67496E-03    3.12373E-02    3.29123E-02    1.15875E-03    0.251910    0.155310
   2   7     80.0     90.0     90.0    1.22867E-01    1.55563E-03    3.27176E-02    3.42733E-02    1.07620E-03    0.266285    0.154603
   1   1     87.5      0.0    180.0    2.09235E-01    1.31731E-03    5.73878E-02    5.87051E-02    9.11324E-04    0.274274    0.178675
   1   4     87.5     45.0    135.0    1.88598E-01    1.18326E-03    5.69412E-02    5.81244E-02    8.18589E-04    0.301919    0.176549
   1   7     87.5     90.0     90.0    1.71774E-01    1.28726E-03    5.75955E-02    5.88827E-02    8.90538E-04    0.335298    0.180095



  K-functions (units of 1/meter) at  530.0 nm
     (These are accurate local (at depth z) values only when zupper and zlower are closely spaced.)

    zupper    zlower       z           Kou(z)         Kod(z)          Ko(z)          Ku(z)          Kd(z)        Knet(z)         KLu(z)

     0.000     0.010     0.005     4.8581E-02     6.2394E-02     6.2147E-02     4.0292E-02     6.3784E-02     6.4021E-02     2.4520E-02
     5.000     5.010     5.005     3.6279E-02     6.8373E-02     6.7731E-02     2.0939E-02     6.9686E-02     7.0274E-02     2.7876E-03
    10.000    10.010    10.005    -3.6459E-03     8.2489E-02     8.0220E-02    -2.4192E-02     8.3789E-02     8.5707E-02    -3.1239E-02
    15.000    15.010    15.005    -1.0545E-01     1.0753E-01     9.6309E-02    -1.0404E-01     1.0893E-01     1.1749E-01    -7.4646E-02
    19.990    20.000    19.995    -3.5337E-01     8.7552E-02     1.3200E-02    -1.5030E-01     9.2463E-02     1.2477E-01    -7.2005E-02


     Waveband   7 of  15 completed in    0.3 sec.



  * * * * * Output for wavelength band    8 ( 540.0 to  560.0 nm; nominal wavelength =  550.0 nm)  * * * * *
 

  RADTRANX clear-sky spectral irradiances averaged over the band from 540.0 nm to 560.0 nm:
          Ed(diffuse) =  3.980E-01     Ed(direct) =  1.031E+00     Ed(total) =  1.429E+00


  Absorption Coefficients of Individual Components at  550.0 nm

  iz   Geo Depth  Opt Depth   Comp 1   Comp 2   Comp 3   Comp 4    Total                                                                                                                                                                                        
          (m)                  (1/m)    (1/m)    (1/m)    (1/m)     (1/m)                                                                                                                                                                                       

   1     0.000      0.000     0.0570   0.0089   0.0000   0.0000   0.0659
   3     5.000      1.439     0.0570   0.0125   0.0000   0.0000   0.0695
   5    10.000      3.266     0.0570   0.0214   0.0000   0.0000   0.0784
   7    15.000      5.746     0.0570   0.0375   0.0000   0.0000   0.0944
  10    20.000      8.358     0.0570   0.0268   0.0000   0.0000   0.0837


  Scattering Coefficients of Individual Components at  550.0 nm

  iz   Geo Depth  Opt Depth   Comp 1   Comp 2   Comp 3   Comp 4    Total                                                                                                                                                                                        
          (m)                  (1/m)    (1/m)    (1/m)    (1/m)     (1/m)                                                                                                                                                                                       

   1     0.000      0.000     0.0017   0.1952   0.0000   0.0000   0.1969
   3     5.000      1.439     0.0017   0.2405   0.0000   0.0000   0.2422
   5    10.000      3.266     0.0017   0.3359   0.0000   0.0000   0.3376
   7    15.000      5.746     0.0017   0.4752   0.0000   0.0000   0.4769
  10    20.000      8.358     0.0017   0.3857   0.0000   0.0000   0.3874


  Backscattering Coefficients of Individual Components at  550.0 nm
  (computed from the scattering coefficients and the phase functions)

  iz   Geo Depth  Opt Depth   Comp 1   Comp 2   Comp 3   Comp 4    Total                                                                                                                                                                                        
          (m)                  (1/m)    (1/m)    (1/m)    (1/m)     (1/m)                                                                                                                                                                                       

   1     0.000      0.000    0.00085  0.00020  0.00000  0.00000  0.00105
   3     5.000      1.439    0.00085  0.00024  0.00000  0.00000  0.00109
   5    10.000      3.266    0.00085  0.00034  0.00000  0.00000  0.00119
   7    15.000      5.746    0.00085  0.00048  0.00000  0.00000  0.00133
  10    20.000      8.358    0.00085  0.00039  0.00000  0.00000  0.00124


  Summary of Inherent Optical Properties at  550.0 nm

  iz  Geo Depth  Opt Depth    total a   total b    total c    albedo   total bb  total bb/b
          (m)                  (1/m)      (1/m)               (1/m)

   1     0.000      0.000      0.0659    0.1969     0.2628    0.7493    0.00105    0.00533
   3     5.000      1.439      0.0695    0.2422     0.3116    0.7771    0.00109    0.00452
   5    10.000      3.266      0.0784    0.3376     0.4160    0.8116    0.00119    0.00352
   7    15.000      5.746      0.0944    0.4769     0.5714    0.8347    0.00133    0.00279
  10    20.000      8.358      0.0837    0.3874     0.4712    0.8223    0.00124    0.00320

     The bottom reflectance at wavelength 550.0 nm is R = 0.144



  Spectral Irradiances [units of W/(m^2 nm)], Mean Cosines (mubars), and Irradiance Reflectance at  550.0 nm

   iz     z(m)     zeta        Eou            Eod             Eo             Eu             Ed      mubar_u  mubar_d    mubar      R = Eu/Ed

             in air         1.4944E-01     1.9993E+00     2.1488E+00     5.4274E-02     1.4291E+00   0.3632   0.7148   0.6398     3.7978E-02

    1     0.00     0.00     2.2642E-02     1.5534E+00     1.5761E+00     1.1326E-02     1.3861E+00   0.5002   0.8923   0.8723     8.1706E-03
    3     5.00     1.44     1.9051E-02     1.0627E+00     1.0818E+00     1.0232E-02     9.4243E-01   0.5371   0.8868   0.8617     1.0857E-02
    5    10.00     3.27     1.9049E-02     6.9977E-01     7.1882E-01     1.1239E-02     6.1684E-01   0.5900   0.8815   0.8425     1.8221E-02
    7    15.00     5.75     2.6896E-02     4.2813E-01     4.5502E-01     1.6629E-02     3.7473E-01   0.6183   0.8753   0.7870     4.4376E-02
   10    20.00     8.36     6.4286E-02     2.5781E-01     3.2210E-01     3.2143E-02     2.2365E-01   0.5000   0.8675   0.5946     1.4372E-01



  Selected Spectral Radiances [units of W/(m^2 sr nm)] and Radiance-Irradiance Ratios at  550.0 nm

  [(theta,phi) are the directions of radiance propagation (theta = 0 is downward, phi = 0 is downwind).]

   iz       z     zeta       Lu(z)        Ld(z)    Lh(z,phi=0)  Lh(z,phi=90) Lh(z,phi=180)    Lu/Ed      Q = Eu/Lu       Lw       Rrs = Lw/Ed
           (m)            (theta=180)   (theta=0)   (theta=90)   (theta=90)   (theta=90)      (1/sr)       (sr)      (theta=180)    (1/sr)

             in air        1.043E-02    1.082E-01    1.291E-01    1.111E-01    1.666E-01    7.300E-03    5.202E+00    2.328E-03    1.629E-03

    1     0.00     0.00    4.317E-03    2.008E-01    4.564E-03    4.535E-03    5.580E-03    3.114E-03    2.623E+00
    3     5.00     1.44    4.292E-03    1.751E-01    2.938E-03    3.167E-03    4.503E-03    4.554E-03    2.384E+00
    5    10.00     3.27    4.971E-03    1.524E-01    1.995E-03    2.241E-03    3.380E-03    8.058E-03    2.261E+00
    7    15.00     5.75    6.839E-03    1.274E-01    1.369E-03    1.578E-03    2.436E-03    1.825E-02    2.431E+00
   10    20.00     8.36    1.023E-02    9.883E-02    6.151E-03    6.224E-03    6.522E-03    4.575E-02    3.142E+00



  Spectral Radiances Just Above the Water Surface (at z = a) [units of W/(m^2 sr nm)] at  550.0 nm
  and f/Q = Lu/[Ed (bb/a)] [units of 1/sr] just below the surface (at z = 0)

   [(Theta,Phi) are the directions of radiance propagation.
   For sky radiances only, theta is measured from 0 at the zenith.
   IF the sun is at phi = 0, solar radiance propagates in the Phi = 180 direction, and then
   Phi = 45 represents the 135 degree viewing angle for minimizing sun glitter.]

   I   J    Theta      Phi  Phi-view      L(sky)      L(water-lv)    L(refl-sky)    L(total up)       Rrs           rho       f/Q(z=0)
           (zenith)                                                                                             (Lrefl/Lsky)   [1/sr]
  10   1      0.0      0.0      0.0    1.08248E-01    2.32826E-03    8.10433E-03    1.04326E-02    1.62919E-03    0.074868    0.195662
   9   1     10.0      0.0    180.0    6.78344E-02    2.34810E-03    2.22280E-03    4.57090E-03    1.64307E-03    0.032768    0.197519
   9   4     10.0     45.0    135.0    7.43284E-02    2.32749E-03    2.79859E-03    5.12607E-03    1.62864E-03    0.037652    0.196206
   9   7     10.0     90.0     90.0    9.94402E-02    2.29603E-03    5.79967E-03    8.09570E-03    1.60663E-03    0.058323    0.193098
   8   1     20.0      0.0    180.0    5.29035E-02    2.32828E-03    1.27039E-03    3.59867E-03    1.62920E-03    0.024013    0.193437
   8   4     20.0     45.0    135.0    5.88912E-02    2.29385E-03    1.54318E-03    3.83704E-03    1.60511E-03    0.026204    0.192011
   8   7     20.0     90.0     90.0    8.64424E-02    2.25668E-03    3.40874E-03    5.66543E-03    1.57910E-03    0.039434    0.186332
   7   1     30.0      0.0    180.0    4.57178E-02    2.28715E-03    1.10825E-03    3.39540E-03    1.60042E-03    0.024241    0.187019
   7   4     30.0     45.0    135.0    5.06788E-02    2.26261E-03    1.23719E-03    3.49980E-03    1.58325E-03    0.024412    0.183556
   7   7     30.0     90.0     90.0    7.42601E-02    2.19293E-03    2.12076E-03    4.31369E-03    1.53449E-03    0.028559    0.175595
   6   1     40.0      0.0    180.0    4.33500E-02    2.19788E-03    1.22718E-03    3.42506E-03    1.53795E-03    0.028309    0.176388
   6   4     40.0     45.0    135.0    4.74122E-02    2.16127E-03    1.33024E-03    3.49151E-03    1.51233E-03    0.028057    0.171572
   6   7     40.0     90.0     90.0    6.67086E-02    2.07292E-03    1.92816E-03    4.00108E-03    1.45051E-03    0.028904    0.162002
   5   1     50.0      0.0    180.0    4.54676E-02    2.09858E-03    1.94096E-03    4.03955E-03    1.46847E-03    0.042689    0.163675
   5   4     50.0     45.0    135.0    4.84558E-02    2.04907E-03    2.01141E-03    4.06048E-03    1.43382E-03    0.041510    0.158103
   5   7     50.0     90.0     90.0    6.44686E-02    1.95023E-03    2.60633E-03    4.55656E-03    1.36466E-03    0.040428    0.148002
   4   1     60.0      0.0    180.0    5.40691E-02    1.95858E-03    4.54013E-03    6.49871E-03    1.37050E-03    0.083969    0.153344
   4   4     60.0     45.0    135.0    5.52933E-02    1.90536E-03    4.47510E-03    6.38046E-03    1.33326E-03    0.080934    0.147522
   4   7     60.0     90.0     90.0    6.82525E-02    1.80300E-03    5.21688E-03    7.01988E-03    1.26164E-03    0.076435    0.138452
   3   1     70.0      0.0    180.0    7.53626E-02    1.71157E-03    1.25070E-02    1.42185E-02    1.19766E-03    0.165957    0.151928
   3   4     70.0     45.0    135.0    7.32388E-02    1.65360E-03    1.20006E-02    1.36542E-02    1.15710E-03    0.163855    0.146548
   3   7     70.0     90.0     90.0    8.17508E-02    1.55741E-03    1.29903E-02    1.45477E-02    1.08979E-03    0.158901    0.140681
   2   1     80.0      0.0    180.0    1.29129E-01    1.35900E-03    3.10880E-02    3.24470E-02    9.50954E-04    0.240751    0.163318
   2   4     80.0     45.0    135.0    1.19563E-01    1.33602E-03    3.01190E-02    3.14551E-02    9.34869E-04    0.251910    0.159289
   2   7     80.0     90.0     90.0    1.18469E-01    1.24481E-03    3.15464E-02    3.27912E-02    8.71048E-04    0.266285    0.159366
   1   1     87.5      0.0    180.0    2.01745E-01    1.03846E-03    5.53334E-02    5.63719E-02    7.26657E-04    0.274274    0.181538
   1   4     87.5     45.0    135.0    1.81846E-01    9.34160E-04    5.49028E-02    5.58369E-02    6.53673E-04    0.301919    0.179818
   1   7     87.5     90.0     90.0    1.65625E-01    1.01929E-03    5.55336E-02    5.65529E-02    7.13242E-04    0.335298    0.184853



  K-functions (units of 1/meter) at  550.0 nm
     (These are accurate local (at depth z) values only when zupper and zlower are closely spaced.)

    zupper    zlower       z           Kou(z)         Kod(z)          Ko(z)          Ku(z)          Kd(z)        Knet(z)         KLu(z)

     0.000     0.010     0.005     4.6120E-02     7.3860E-02     7.3461E-02     3.3948E-02     7.4902E-02     7.5239E-02     1.4618E-02
     5.000     5.010     5.005     2.1647E-02     7.8323E-02     7.7325E-02     4.4146E-03     7.9437E-02     8.0261E-02    -1.2797E-02
    10.000    10.010    10.005    -2.6795E-02     8.8903E-02     8.5836E-02    -4.4638E-02     9.0158E-02     9.2661E-02    -4.5722E-02
    15.000    15.010    15.005    -1.1828E-01     1.0769E-01     9.4320E-02    -1.1354E-01     1.0924E-01     1.1960E-01    -8.0626E-02
    19.990    20.000    19.995    -3.8199E-01     9.1016E-02    -3.2092E-03    -1.6305E-01     9.6739E-02     1.4028E-01    -7.8584E-02


     Waveband   8 of  15 completed in    0.4 sec.



  * * * * * Output for wavelength band    9 ( 560.0 to  580.0 nm; nominal wavelength =  570.0 nm)  * * * * *
 

  RADTRANX clear-sky spectral irradiances averaged over the band from 560.0 nm to 580.0 nm:
          Ed(diffuse) =  3.854E-01     Ed(direct) =  1.029E+00     Ed(total) =  1.415E+00


  Absorption Coefficients of Individual Components at  570.0 nm

  iz   Geo Depth  Opt Depth   Comp 1   Comp 2   Comp 3   Comp 4    Total                                                                                                                                                                                        
          (m)                  (1/m)    (1/m)    (1/m)    (1/m)     (1/m)                                                                                                                                                                                       

   1     0.000      0.000     0.0701   0.0069   0.0000   0.0000   0.0770
   3     5.000      1.452     0.0701   0.0097   0.0000   0.0000   0.0797
   5    10.000      3.274     0.0701   0.0166   0.0000   0.0000   0.0866
   7    15.000      5.714     0.0701   0.0290   0.0000   0.0000   0.0991
  10    20.000      8.277     0.0701   0.0207   0.0000   0.0000   0.0908


  Scattering Coefficients of Individual Components at  570.0 nm

  iz   Geo Depth  Opt Depth   Comp 1   Comp 2   Comp 3   Comp 4    Total                                                                                                                                                                                        
          (m)                  (1/m)    (1/m)    (1/m)    (1/m)     (1/m)                                                                                                                                                                                       

   1     0.000      0.000     0.0015   0.1884   0.0000   0.0000   0.1898
   3     5.000      1.452     0.0015   0.2320   0.0000   0.0000   0.2335
   5    10.000      3.274     0.0015   0.3241   0.0000   0.0000   0.3256
   7    15.000      5.714     0.0015   0.4585   0.0000   0.0000   0.4600
  10    20.000      8.277     0.0015   0.3722   0.0000   0.0000   0.3737


  Backscattering Coefficients of Individual Components at  570.0 nm
  (computed from the scattering coefficients and the phase functions)

  iz   Geo Depth  Opt Depth   Comp 1   Comp 2   Comp 3   Comp 4    Total                                                                                                                                                                                        
          (m)                  (1/m)    (1/m)    (1/m)    (1/m)     (1/m)                                                                                                                                                                                       

   1     0.000      0.000    0.00074  0.00019  0.00000  0.00000  0.00092
   3     5.000      1.452    0.00074  0.00023  0.00000  0.00000  0.00097
   5    10.000      3.274    0.00074  0.00032  0.00000  0.00000  0.00106
   7    15.000      5.714    0.00074  0.00046  0.00000  0.00000  0.00119
  10    20.000      8.277    0.00074  0.00037  0.00000  0.00000  0.00111


  Summary of Inherent Optical Properties at  570.0 nm

  iz  Geo Depth  Opt Depth    total a   total b    total c    albedo   total bb  total bb/b
          (m)                  (1/m)      (1/m)               (1/m)

   1     0.000      0.000      0.0770    0.1898     0.2668    0.7115    0.00092    0.00486
   3     5.000      1.452      0.0797    0.2335     0.3133    0.7454    0.00097    0.00414
   5    10.000      3.274      0.0866    0.3256     0.4122    0.7898    0.00106    0.00325
   7    15.000      5.714      0.0991    0.4600     0.5591    0.8228    0.00119    0.00259
  10    20.000      8.277      0.0908    0.3737     0.4645    0.8045    0.00111    0.00296

     The bottom reflectance at wavelength 570.0 nm is R = 0.197



  Spectral Irradiances [units of W/(m^2 nm)], Mean Cosines (mubars), and Irradiance Reflectance at  570.0 nm

   iz     z(m)     zeta        Eou            Eod             Eo             Eu             Ed      mubar_u  mubar_d    mubar      R = Eu/Ed

             in air         1.4412E-01     1.9718E+00     2.1159E+00     5.2487E-02     1.4147E+00   0.3642   0.7175   0.6438     3.7101E-02

    1     0.00     0.00     1.8011E-02     1.5338E+00     1.5518E+00     9.2370E-03     1.3715E+00   0.5129   0.8942   0.8778     6.7351E-03
    3     5.00     1.45     1.5800E-02     9.8878E-01     1.0046E+00     8.8761E-03     8.7967E-01   0.5618   0.8897   0.8668     1.0090E-02
    5    10.00     3.27     1.7530E-02     6.1887E-01     6.3640E-01     1.0840E-02     5.4770E-01   0.6184   0.8850   0.8436     1.9792E-02
    7    15.00     5.71     2.7792E-02     3.6608E-01     3.9388E-01     1.7640E-02     3.2175E-01   0.6347   0.8789   0.7721     5.4825E-02
   10    20.00     8.28     7.3258E-02     2.1411E-01     2.8736E-01     3.6629E-02     1.8638E-01   0.5000   0.8705   0.5211     1.9653E-01



  Selected Spectral Radiances [units of W/(m^2 sr nm)] and Radiance-Irradiance Ratios at  570.0 nm

  [(theta,phi) are the directions of radiance propagation (theta = 0 is downward, phi = 0 is downwind).]

   iz       z     zeta       Lu(z)        Ld(z)    Lh(z,phi=0)  Lh(z,phi=90) Lh(z,phi=180)    Lu/Ed      Q = Eu/Lu       Lw       Rrs = Lw/Ed
           (m)            (theta=180)   (theta=0)   (theta=90)   (theta=90)   (theta=90)      (1/sr)       (sr)      (theta=180)    (1/sr)

             in air        1.003E-02    1.048E-01    1.249E-01    1.075E-01    1.613E-01    7.090E-03    5.233E+00    2.022E-03    1.429E-03

    1     0.00     0.00    3.751E-03    1.945E-01    3.507E-03    3.516E-03    4.408E-03    2.735E-03    2.463E+00
    3     5.00     1.45    4.016E-03    1.604E-01    2.147E-03    2.341E-03    3.394E-03    4.566E-03    2.210E+00
    5    10.00     3.27    5.073E-03    1.330E-01    1.460E-03    1.657E-03    2.535E-03    9.262E-03    2.137E+00
    7    15.00     5.71    7.448E-03    1.075E-01    1.068E-03    1.234E-03    1.900E-03    2.315E-02    2.368E+00
   10    20.00     8.28    1.166E-02    8.109E-02    6.798E-03    6.853E-03    7.072E-03    6.256E-02    3.142E+00



  Spectral Radiances Just Above the Water Surface (at z = a) [units of W/(m^2 sr nm)] at  570.0 nm
  and f/Q = Lu/[Ed (bb/a)] [units of 1/sr] just below the surface (at z = 0)

   [(Theta,Phi) are the directions of radiance propagation.
   For sky radiances only, theta is measured from 0 at the zenith.
   IF the sun is at phi = 0, solar radiance propagates in the Phi = 180 direction, and then
   Phi = 45 represents the 135 degree viewing angle for minimizing sun glitter.]

   I   J    Theta      Phi  Phi-view      L(sky)      L(water-lv)    L(refl-sky)    L(total up)       Rrs           rho       f/Q(z=0)
           (zenith)                                                                                             (Lrefl/Lsky)   [1/sr]
  10   1      0.0      0.0      0.0    1.04822E-01    2.02199E-03    8.00837E-03    1.00304E-02    1.42925E-03    0.076400    0.227975
   9   1     10.0      0.0    180.0    6.56870E-02    2.03028E-03    2.16820E-03    4.19847E-03    1.43511E-03    0.033008    0.228888
   9   4     10.0     45.0    135.0    7.19754E-02    2.01363E-03    2.73752E-03    4.75115E-03    1.42334E-03    0.038034    0.227518
   9   7     10.0     90.0     90.0    9.62923E-02    1.98923E-03    5.71393E-03    7.70317E-03    1.40610E-03    0.059339    0.224284
   8   1     20.0      0.0    180.0    5.12288E-02    2.00132E-03    1.23053E-03    3.23185E-03    1.41464E-03    0.024020    0.221884
   8   4     20.0     45.0    135.0    5.70269E-02    1.97338E-03    1.49781E-03    3.47120E-03    1.39489E-03    0.026265    0.220439
   8   7     20.0     90.0     90.0    8.37060E-02    1.94583E-03    3.33795E-03    5.28378E-03    1.37542E-03    0.039877    0.214534
   7   1     30.0      0.0    180.0    4.42705E-02    1.95139E-03    1.07317E-03    3.02456E-03    1.37935E-03    0.024241    0.210908
   7   4     30.0     45.0    135.0    4.90745E-02    1.93247E-03    1.19815E-03    3.13063E-03    1.36598E-03    0.024415    0.207314
   7   7     30.0     90.0     90.0    7.19093E-02    1.87853E-03    2.06051E-03    3.93904E-03    1.32784E-03    0.028654    0.199060
   6   1     40.0      0.0    180.0    4.19777E-02    1.85116E-03    1.18834E-03    3.03949E-03    1.30850E-03    0.028309    0.194315
   6   4     40.0     45.0    135.0    4.59113E-02    1.82303E-03    1.28813E-03    3.11116E-03    1.28861E-03    0.028057    0.189327
   6   7     40.0     90.0     90.0    6.45969E-02    1.75480E-03    1.86771E-03    3.62251E-03    1.24039E-03    0.028913    0.179458
   5   1     50.0      0.0    180.0    4.40283E-02    1.74586E-03    1.87952E-03    3.62538E-03    1.23407E-03    0.042689    0.175188
   5   4     50.0     45.0    135.0    4.69218E-02    1.70743E-03    1.94774E-03    3.65517E-03    1.20690E-03    0.041510    0.169452
   5   7     50.0     90.0     90.0    6.24278E-02    1.63125E-03    2.52382E-03    4.15508E-03    1.15306E-03    0.040428    0.159130
   4   1     60.0      0.0    180.0    5.23575E-02    1.60766E-03    4.39640E-03    6.00406E-03    1.13638E-03    0.083969    0.159499
   4   4     60.0     45.0    135.0    5.35430E-02    1.56659E-03    4.33344E-03    5.90003E-03    1.10735E-03    0.080934    0.153562
   4   7     60.0     90.0     90.0    6.60919E-02    1.48805E-03    5.05173E-03    6.53978E-03    1.05183E-03    0.076435    0.144457
   3   1     70.0      0.0    180.0    7.29769E-02    1.38528E-03    1.21110E-02    1.34963E-02    9.79193E-04    0.165957    0.155098
   3   4     70.0     45.0    135.0    7.09203E-02    1.34043E-03    1.16207E-02    1.29611E-02    9.47489E-04    0.163855    0.149705
   3   7     70.0     90.0     90.0    7.91629E-02    1.26701E-03    1.25791E-02    1.38461E-02    8.95594E-04    0.158901    0.144130
   2   1     80.0      0.0    180.0    1.25042E-01    1.08509E-03    3.01039E-02    3.11890E-02    7.67003E-04    0.240751    0.165403
   2   4     80.0     45.0    135.0    1.15778E-01    1.06823E-03    2.91656E-02    3.02338E-02    7.55081E-04    0.251910    0.161534
   2   7     80.0     90.0     90.0    1.14718E-01    9.98592E-04    3.05477E-02    3.15463E-02    7.05859E-04    0.266285    0.162473
   1   1     87.5      0.0    180.0    1.95358E-01    8.19562E-04    5.35818E-02    5.44013E-02    5.79311E-04    0.274274    0.183636
   1   4     87.5     45.0    135.0    1.76090E-01    7.38384E-04    5.31648E-02    5.39031E-02    5.21930E-04    0.301919    0.182366
   1   7     87.5     90.0     90.0    1.60382E-01    8.08088E-04    5.37756E-02    5.45837E-02    5.71200E-04    0.335298    0.188902



  K-functions (units of 1/meter) at  570.0 nm
     (These are accurate local (at depth z) values only when zupper and zlower are closely spaced.)

    zupper    zlower       z           Kou(z)         Kod(z)          Ko(z)          Ku(z)          Kd(z)        Knet(z)         KLu(z)

     0.000     0.010     0.005     4.3853E-02     8.6282E-02     8.5790E-02     2.7325E-02     8.7033E-02     8.7438E-02     3.0230E-03
     5.000     5.010     5.005     6.0662E-03     8.9696E-02     8.8380E-02    -1.3884E-02     9.0606E-02     9.1672E-02    -3.0277E-02
    10.000    10.010    10.005    -5.2019E-02     9.7825E-02     9.3695E-02    -6.7168E-02     9.8973E-02     1.0233E-01    -6.1968E-02
    15.000    15.010    15.005    -1.3635E-01     1.1226E-01     9.4696E-02    -1.2769E-01     1.1385E-01     1.2788E-01    -9.0050E-02
    19.990    20.000    19.995    -4.2169E-01     9.6463E-02    -3.5376E-02    -1.8093E-01     1.0392E-01     1.7347E-01    -8.7693E-02


     Waveband   9 of  15 completed in    0.4 sec.



  * * * * * Output for wavelength band   10 ( 580.0 to  600.0 nm; nominal wavelength =  590.0 nm)  * * * * *
 

  RADTRANX clear-sky spectral irradiances averaged over the band from 580.0 nm to 600.0 nm:
          Ed(diffuse) =  3.635E-01     Ed(direct) =  9.969E-01     Ed(total) =  1.360E+00


  Absorption Coefficients of Individual Components at  590.0 nm

  iz   Geo Depth  Opt Depth   Comp 1   Comp 2   Comp 3   Comp 4    Total                                                                                                                                                                                        
          (m)                  (1/m)    (1/m)    (1/m)    (1/m)     (1/m)                                                                                                                                                                                       

   1     0.000      0.000     0.1347   0.0070   0.0000   0.0000   0.1417
   3     5.000      1.740     0.1347   0.0099   0.0000   0.0000   0.1446
   5    10.000      3.837     0.1347   0.0169   0.0000   0.0000   0.1516
   7    15.000      6.535     0.1347   0.0296   0.0000   0.0000   0.1643
  10    20.000      9.353     0.1347   0.0211   0.0000   0.0000   0.1558


  Scattering Coefficients of Individual Components at  590.0 nm

  iz   Geo Depth  Opt Depth   Comp 1   Comp 2   Comp 3   Comp 4    Total                                                                                                                                                                                        
          (m)                  (1/m)    (1/m)    (1/m)    (1/m)     (1/m)                                                                                                                                                                                       

   1     0.000      0.000     0.0013   0.1820   0.0000   0.0000   0.1832
   3     5.000      1.740     0.0013   0.2242   0.0000   0.0000   0.2255
   5    10.000      3.837     0.0013   0.3131   0.0000   0.0000   0.3144
   7    15.000      6.535     0.0013   0.4430   0.0000   0.0000   0.4443
  10    20.000      9.353     0.0013   0.3596   0.0000   0.0000   0.3609


  Backscattering Coefficients of Individual Components at  590.0 nm
  (computed from the scattering coefficients and the phase functions)

  iz   Geo Depth  Opt Depth   Comp 1   Comp 2   Comp 3   Comp 4    Total                                                                                                                                                                                        
          (m)                  (1/m)    (1/m)    (1/m)    (1/m)     (1/m)                                                                                                                                                                                       

   1     0.000      0.000    0.00064  0.00018  0.00000  0.00000  0.00082
   3     5.000      1.740    0.00064  0.00022  0.00000  0.00000  0.00086
   5    10.000      3.837    0.00064  0.00031  0.00000  0.00000  0.00095
   7    15.000      6.535    0.00064  0.00044  0.00000  0.00000  0.00108
  10    20.000      9.353    0.00064  0.00036  0.00000  0.00000  0.00100


  Summary of Inherent Optical Properties at  590.0 nm

  iz  Geo Depth  Opt Depth    total a   total b    total c    albedo   total bb  total bb/b
          (m)                  (1/m)      (1/m)               (1/m)

   1     0.000      0.000      0.1417    0.1832     0.3250    0.5638    0.00082    0.00447
   3     5.000      1.740      0.1446    0.2255     0.3700    0.6093    0.00086    0.00382
   5    10.000      3.837      0.1516    0.3144     0.4660    0.6747    0.00095    0.00302
   7    15.000      6.535      0.1643    0.4443     0.6086    0.7300    0.00108    0.00243
  10    20.000      9.353      0.1558    0.3609     0.5167    0.6984    0.00100    0.00276

     The bottom reflectance at wavelength 590.0 nm is R = 0.199



  Spectral Irradiances [units of W/(m^2 nm)], Mean Cosines (mubars), and Irradiance Reflectance at  590.0 nm

   iz     z(m)     zeta        Eou            Eod             Eo             Eu             Ed      mubar_u  mubar_d    mubar      R = Eu/Ed

             in air         1.3105E-01     1.8900E+00     2.0211E+00     4.6792E-02     1.3604E+00   0.3571   0.7198   0.6500     3.4396E-02

    1     0.00     0.00     6.9992E-03     1.4677E+00     1.4747E+00     3.2173E-03     1.3168E+00   0.4597   0.8972   0.8908     2.4432E-03
    3     5.00     1.74     3.8649E-03     6.5860E-01     6.6246E-01     1.8723E-03     5.9031E-01   0.4844   0.8963   0.8883     3.1716E-03
    5    10.00     3.84     2.8129E-03     2.8749E-01     2.9030E-01     1.5897E-03     2.5721E-01   0.5652   0.8947   0.8805     6.1808E-03
    7    15.00     6.54     4.1663E-03     1.1873E-01     1.2290E-01     2.7350E-03     1.0580E-01   0.6565   0.8910   0.8386     2.5852E-02
   10    20.00     9.35     1.7115E-02     4.8483E-02     6.5598E-02     8.5574E-03     4.2942E-02   0.5000   0.8857   0.5242     1.9928E-01



  Selected Spectral Radiances [units of W/(m^2 sr nm)] and Radiance-Irradiance Ratios at  590.0 nm

  [(theta,phi) are the directions of radiance propagation (theta = 0 is downward, phi = 0 is downwind).]

   iz       z     zeta       Lu(z)        Ld(z)    Lh(z,phi=0)  Lh(z,phi=90) Lh(z,phi=180)    Lu/Ed      Q = Eu/Lu       Lw       Rrs = Lw/Ed
           (m)            (theta=180)   (theta=0)   (theta=90)   (theta=90)   (theta=90)      (1/sr)       (sr)      (theta=180)    (1/sr)

             in air        8.247E-03    9.887E-02    1.176E-01    1.011E-01    1.519E-01    6.062E-03    5.674E+00    5.578E-04    4.100E-04

    1     0.00     0.00    1.034E-03    1.834E-01    1.689E-03    1.724E-03    2.246E-03    7.849E-04    3.113E+00
    3     5.00     1.74    7.013E-04    1.089E-01    7.326E-04    8.069E-04    1.187E-03    1.188E-03    2.670E+00
    5    10.00     3.84    7.497E-04    6.461E-02    3.748E-04    4.263E-04    6.489E-04    2.915E-03    2.120E+00
    7    15.00     6.54    1.291E-03    3.724E-02    1.924E-04    2.236E-04    3.448E-04    1.220E-02    2.119E+00
   10    20.00     9.35    2.724E-03    2.006E-02    1.511E-03    1.518E-03    1.544E-03    6.343E-02    3.142E+00



  Spectral Radiances Just Above the Water Surface (at z = a) [units of W/(m^2 sr nm)] at  590.0 nm
  and f/Q = Lu/[Ed (bb/a)] [units of 1/sr] just below the surface (at z = 0)

   [(Theta,Phi) are the directions of radiance propagation.
   For sky radiances only, theta is measured from 0 at the zenith.
   IF the sun is at phi = 0, solar radiance propagates in the Phi = 180 direction, and then
   Phi = 45 represents the 135 degree viewing angle for minimizing sun glitter.]

   I   J    Theta      Phi  Phi-view      L(sky)      L(water-lv)    L(refl-sky)    L(total up)       Rrs           rho       f/Q(z=0)
           (zenith)                                                                                             (Lrefl/Lsky)   [1/sr]
  10   1      0.0      0.0      0.0    9.88668E-02    5.57812E-04    7.68905E-03    8.24686E-03    4.10030E-04    0.077772    0.135938
   9   1     10.0      0.0    180.0    6.19554E-02    5.71136E-04    2.05834E-03    2.62947E-03    4.19824E-04    0.033223    0.139744
   9   4     10.0     45.0    135.0    6.78866E-02    5.64232E-04    2.60524E-03    3.16948E-03    4.14749E-04    0.038376    0.138279
   9   7     10.0     90.0     90.0    9.08221E-02    5.52212E-04    5.47198E-03    6.02419E-03    4.05913E-04    0.060249    0.134835
   8   1     20.0      0.0    180.0    4.83186E-02    5.74202E-04    1.16093E-03    1.73513E-03    4.22078E-04    0.024027    0.139824
   8   4     20.0     45.0    135.0    5.37873E-02    5.63577E-04    1.41566E-03    1.97924E-03    4.14268E-04    0.026320    0.138446
   8   7     20.0     90.0     90.0    7.89508E-02    5.47348E-04    3.17968E-03    3.72703E-03    4.02339E-04    0.040274    0.132147
   7   1     30.0      0.0    180.0    4.17556E-02    5.73712E-04    1.01220E-03    1.58591E-03    4.21718E-04    0.024241    0.141076
   7   4     30.0     45.0    135.0    4.62867E-02    5.65112E-04    1.13020E-03    1.69531E-03    4.15396E-04    0.024417    0.137275
   7   7     30.0     90.0     90.0    6.78243E-02    5.38393E-04    1.94928E-03    2.48767E-03    3.95756E-04    0.028740    0.128482
   6   1     40.0      0.0    180.0    3.95930E-02    5.69164E-04    1.12083E-03    1.68999E-03    4.18374E-04    0.028309    0.140918
   6   4     40.0     45.0    135.0    4.33031E-02    5.55077E-04    1.21496E-03    1.77003E-03    4.08020E-04    0.028057    0.135633
   6   7     40.0     90.0     90.0    6.09272E-02    5.21262E-04    1.76211E-03    2.28338E-03    3.83163E-04    0.028922    0.125143
   5   1     50.0      0.0    180.0    4.15271E-02    5.60357E-04    1.77275E-03    2.33310E-03    4.11901E-04    0.042689    0.141083
   5   4     50.0     45.0    135.0    4.42563E-02    5.41893E-04    1.83709E-03    2.37898E-03    3.98328E-04    0.041510    0.135042
   5   7     50.0     90.0     90.0    5.88813E-02    5.04360E-04    2.38045E-03    2.88481E-03    3.70739E-04    0.040428    0.124091
   4   1     60.0      0.0    180.0    4.93831E-02    5.40615E-04    4.14665E-03    4.68727E-03    3.97389E-04    0.083969    0.143711
   4   4     60.0     45.0    135.0    5.05013E-02    5.20536E-04    4.08726E-03    4.60780E-03    3.82630E-04    0.080934    0.137494
   4   7     60.0     90.0     90.0    6.23373E-02    4.81649E-04    4.76475E-03    5.24640E-03    3.54045E-04    0.076435    0.127849
   3   1     70.0      0.0    180.0    6.88312E-02    4.90464E-04    1.14230E-02    1.19135E-02    3.60525E-04    0.165957    0.150727
   3   4     70.0     45.0    135.0    6.68914E-02    4.69245E-04    1.09605E-02    1.14298E-02    3.44927E-04    0.163855    0.145140
   3   7     70.0     90.0     90.0    7.46657E-02    4.32901E-04    1.18645E-02    1.22974E-02    3.18212E-04    0.158901    0.139295
   2   1     80.0      0.0    180.0    1.17938E-01    4.03867E-04    2.83938E-02    2.87976E-02    2.96870E-04    0.240751    0.164583
   2   4     80.0     45.0    135.0    1.09201E-01    3.93494E-04    2.75087E-02    2.79022E-02    2.89245E-04    0.251910    0.160744
   2   7     80.0     90.0     90.0    1.08201E-01    3.59985E-04    2.88124E-02    2.91724E-02    2.64614E-04    0.266285    0.162187
   1   1     87.5      0.0    180.0    1.84260E-01    3.19061E-04    5.05379E-02    5.08569E-02    2.34532E-04    0.274274    0.183653
   1   4     87.5     45.0    135.0    1.66086E-01    2.84506E-04    5.01445E-02    5.04291E-02    2.09131E-04    0.301919    0.183032
   1   7     87.5     90.0     90.0    1.51271E-01    3.05774E-04    5.07207E-02    5.10265E-02    2.24765E-04    0.335298    0.191447



  K-functions (units of 1/meter) at  590.0 nm
     (These are accurate local (at depth z) values only when zupper and zlower are closely spaced.)

    zupper    zlower       z           Kou(z)         Kod(z)          Ko(z)          Ku(z)          Kd(z)        Knet(z)         KLu(z)

     0.000     0.010     0.005     1.3387E-01     1.5901E-01     1.5889E-01     1.2589E-01     1.5882E-01     1.5890E-01     1.0768E-01
     5.000     5.010     5.005     9.9329E-02     1.6195E-01     1.6158E-01     8.1784E-02     1.6210E-01     1.6236E-01     3.8462E-02
    10.000    10.010    10.005     9.0958E-03     1.6973E-01     1.6817E-01    -3.1139E-02     1.7027E-01     1.7152E-01    -6.5849E-02
    15.000    15.010    15.005    -1.7319E-01     1.8411E-01     1.7197E-01    -1.8061E-01     1.8513E-01     1.9485E-01    -1.4220E-01
    19.990    20.000    19.995    -6.9646E-01     1.6724E-01    -5.7383E-02    -3.0826E-01     1.7477E-01     2.9463E-01    -1.5135E-01


     Waveband  10 of  15 completed in    0.5 sec.



  * * * * * Output for wavelength band   11 ( 600.0 to  620.0 nm; nominal wavelength =  610.0 nm)  * * * * *
 

  RADTRANX clear-sky spectral irradiances averaged over the band from 600.0 nm to 620.0 nm:
          Ed(diffuse) =  3.544E-01     Ed(direct) =  9.951E-01     Ed(total) =  1.349E+00


  Absorption Coefficients of Individual Components at  610.0 nm

  iz   Geo Depth  Opt Depth   Comp 1   Comp 2   Comp 3   Comp 4    Total                                                                                                                                                                                        
          (m)                  (1/m)    (1/m)    (1/m)    (1/m)     (1/m)                                                                                                                                                                                       

   1     0.000      0.000     0.2651   0.0063   0.0000   0.0000   0.2714
   3     5.000      2.353     0.2651   0.0088   0.0000   0.0000   0.2740
   5    10.000      5.051     0.2651   0.0151   0.0000   0.0000   0.2803
   7    15.000      8.326     0.2651   0.0265   0.0000   0.0000   0.2916
  10    20.000     11.715     0.2651   0.0189   0.0000   0.0000   0.2840


  Scattering Coefficients of Individual Components at  610.0 nm

  iz   Geo Depth  Opt Depth   Comp 1   Comp 2   Comp 3   Comp 4    Total                                                                                                                                                                                        
          (m)                  (1/m)    (1/m)    (1/m)    (1/m)     (1/m)                                                                                                                                                                                       

   1     0.000      0.000     0.0011   0.1760   0.0000   0.0000   0.1771
   3     5.000      2.353     0.0011   0.2168   0.0000   0.0000   0.2179
   5    10.000      5.051     0.0011   0.3029   0.0000   0.0000   0.3040
   7    15.000      8.326     0.0011   0.4285   0.0000   0.0000   0.4296
  10    20.000     11.715     0.0011   0.3478   0.0000   0.0000   0.3489


  Backscattering Coefficients of Individual Components at  610.0 nm
  (computed from the scattering coefficients and the phase functions)

  iz   Geo Depth  Opt Depth   Comp 1   Comp 2   Comp 3   Comp 4    Total                                                                                                                                                                                        
          (m)                  (1/m)    (1/m)    (1/m)    (1/m)     (1/m)                                                                                                                                                                                       

   1     0.000      0.000    0.00055  0.00018  0.00000  0.00000  0.00073
   3     5.000      2.353    0.00055  0.00022  0.00000  0.00000  0.00077
   5    10.000      5.051    0.00055  0.00030  0.00000  0.00000  0.00086
   7    15.000      8.326    0.00055  0.00043  0.00000  0.00000  0.00098
  10    20.000     11.715    0.00055  0.00035  0.00000  0.00000  0.00090


  Summary of Inherent Optical Properties at  610.0 nm

  iz  Geo Depth  Opt Depth    total a   total b    total c    albedo   total bb  total bb/b
          (m)                  (1/m)      (1/m)               (1/m)

   1     0.000      0.000      0.2714    0.1771     0.4486    0.3948    0.00073    0.00412
   3     5.000      2.353      0.2740    0.2179     0.4919    0.4430    0.00077    0.00354
   5    10.000      5.051      0.2803    0.3040     0.5842    0.5203    0.00086    0.00282
   7    15.000      8.326      0.2916    0.4296     0.7212    0.5957    0.00098    0.00229
  10    20.000     11.715      0.2840    0.3489     0.6330    0.5512    0.00090    0.00258

     The bottom reflectance at wavelength 610.0 nm is R = 0.215



  Spectral Irradiances [units of W/(m^2 nm)], Mean Cosines (mubars), and Irradiance Reflectance at  610.0 nm

   iz     z(m)     zeta        Eou            Eod             Eo             Eu             Ed      mubar_u  mubar_d    mubar      R = Eu/Ed

             in air         1.2687E-01     1.8694E+00     1.9962E+00     4.5286E-02     1.3494E+00   0.3570   0.7219   0.6533     3.3559E-02

    1     0.00     0.00     3.1566E-03     1.4526E+00     1.4557E+00     1.4216E-03     1.3056E+00   0.4504   0.8988   0.8959     1.0889E-03
    3     5.00     2.35     9.3467E-04     3.1726E-01     3.1819E-01     4.3025E-04     2.8659E-01   0.4603   0.9033   0.8993     1.5013E-03
    5    10.00     5.05     3.6212E-04     6.8334E-02     6.8696E-02     1.7452E-04     6.1804E-02   0.4819   0.9044   0.8971     2.8237E-03
    7    15.00     8.33     2.3993E-04     1.4145E-02     1.4385E-02     1.3921E-04     1.2745E-02   0.5802   0.9011   0.8764     1.0923E-02
   10    20.00    11.72     1.1326E-03     2.9535E-03     4.0861E-03     5.6629E-04     2.6300E-03   0.5000   0.8905   0.5051     2.1532E-01



  Selected Spectral Radiances [units of W/(m^2 sr nm)] and Radiance-Irradiance Ratios at  610.0 nm

  [(theta,phi) are the directions of radiance propagation (theta = 0 is downward, phi = 0 is downwind).]

   iz       z     zeta       Lu(z)        Ld(z)    Lh(z,phi=0)  Lh(z,phi=90) Lh(z,phi=180)    Lu/Ed      Q = Eu/Lu       Lw       Rrs = Lw/Ed
           (m)            (theta=180)   (theta=0)   (theta=90)   (theta=90)   (theta=90)      (1/sr)       (sr)      (theta=180)    (1/sr)

             in air        7.846E-03    9.637E-02    1.145E-01    9.852E-02    1.480E-01    5.815E-03    5.772E+00    2.298E-04    1.703E-04

    1     0.00     0.00    4.256E-04    1.787E-01    8.745E-04    9.156E-04    1.248E-03    3.260E-04    3.340E+00
    3     5.00     2.35    1.330E-04    5.507E-02    1.866E-04    2.055E-04    2.973E-04    4.640E-04    3.235E+00
    5    10.00     5.05    6.025E-05    1.687E-02    6.597E-05    7.235E-05    9.883E-05    9.749E-04    2.896E+00
    7    15.00     8.33    6.338E-05    5.019E-03    2.806E-05    3.001E-05    3.728E-05    4.973E-03    2.196E+00
   10    20.00    11.72    1.803E-04    1.407E-03    1.017E-04    1.019E-04    1.027E-04    6.854E-02    3.142E+00



  Spectral Radiances Just Above the Water Surface (at z = a) [units of W/(m^2 sr nm)] at  610.0 nm
  and f/Q = Lu/[Ed (bb/a)] [units of 1/sr] just below the surface (at z = 0)

   [(Theta,Phi) are the directions of radiance propagation.
   For sky radiances only, theta is measured from 0 at the zenith.
   IF the sun is at phi = 0, solar radiance propagates in the Phi = 180 direction, and then
   Phi = 45 represents the 135 degree viewing angle for minimizing sun glitter.]

   I   J    Theta      Phi  Phi-view      L(sky)      L(water-lv)    L(refl-sky)    L(total up)       Rrs           rho       f/Q(z=0)
           (zenith)                                                                                             (Lrefl/Lsky)   [1/sr]
  10   1      0.0      0.0      0.0    9.63721E-02    2.29834E-04    7.61648E-03    7.84631E-03    1.70319E-04    0.079032    0.121240
   9   1     10.0      0.0    180.0    6.03921E-02    2.37128E-04    2.01832E-03    2.25545E-03    1.75725E-04    0.033420    0.125816
   9   4     10.0     45.0    135.0    6.61736E-02    2.33993E-04    2.56032E-03    2.79431E-03    1.73401E-04    0.038691    0.124330
   9   7     10.0     90.0     90.0    8.85304E-02    2.28399E-04    5.40791E-03    5.63631E-03    1.69256E-04    0.061085    0.120861
   8   1     20.0      0.0    180.0    4.70993E-02    2.40473E-04    1.13190E-03    1.37238E-03    1.78203E-04    0.024032    0.127655
   8   4     20.0     45.0    135.0    5.24301E-02    2.35791E-04    1.38257E-03    1.61836E-03    1.74734E-04    0.026370    0.126394
   8   7     20.0     90.0     90.0    7.69586E-02    2.28054E-04    3.12752E-03    3.35557E-03    1.69000E-04    0.040639    0.120033
   7   1     30.0      0.0    180.0    4.07020E-02    2.42767E-04    9.86659E-04    1.22943E-03    1.79903E-04    0.024241    0.131825
   7   4     30.0     45.0    135.0    4.51187E-02    2.38931E-04    1.10178E-03    1.34071E-03    1.77060E-04    0.024420    0.128001
   7   7     30.0     90.0     90.0    6.61129E-02    2.26466E-04    1.90530E-03    2.13177E-03    1.67823E-04    0.028819    0.119122
   6   1     40.0      0.0    180.0    3.85940E-02    2.45044E-04    1.09254E-03    1.33759E-03    1.81590E-04    0.028309    0.134797
   6   4     40.0     45.0    135.0    4.22105E-02    2.38485E-04    1.18430E-03    1.42279E-03    1.76730E-04    0.028057    0.129462
   6   7     40.0     90.0     90.0    5.93899E-02    2.22709E-04    1.71810E-03    1.94081E-03    1.65039E-04    0.028929    0.118880
   5   1     50.0      0.0    180.0    4.04792E-02    2.44471E-04    1.72801E-03    1.97248E-03    1.81166E-04    0.042689    0.137609
   5   4     50.0     45.0    135.0    4.31396E-02    2.35894E-04    1.79073E-03    2.02663E-03    1.74810E-04    0.041510    0.131525
   5   7     50.0     90.0     90.0    5.73956E-02    2.18403E-04    2.32038E-03    2.53879E-03    1.61848E-04    0.040428    0.120504
   4   1     60.0      0.0    180.0    4.81371E-02    2.38816E-04    4.04202E-03    4.28084E-03    1.76976E-04    0.083969    0.141726
   4   4     60.0     45.0    135.0    4.92270E-02    2.29462E-04    3.98413E-03    4.21359E-03    1.70044E-04    0.080934    0.135487
   4   7     60.0     90.0     90.0    6.07644E-02    2.11338E-04    4.64452E-03    4.85586E-03    1.56613E-04    0.076435    0.125847
   3   1     70.0      0.0    180.0    6.70944E-02    2.18875E-04    1.11348E-02    1.13537E-02    1.62198E-04    0.165957    0.149111
   3   4     70.0     45.0    135.0    6.52036E-02    2.09035E-04    1.06840E-02    1.08930E-02    1.54906E-04    0.163855    0.143555
   3   7     70.0     90.0     90.0    7.27817E-02    1.92112E-04    1.15651E-02    1.17572E-02    1.42365E-04    0.158901    0.137916
   2   1     80.0      0.0    180.0    1.14962E-01    1.81723E-04    2.76773E-02    2.78590E-02    1.34666E-04    0.240751    0.163266
   2   4     80.0     45.0    135.0    1.06445E-01    1.76798E-04    2.68146E-02    2.69914E-02    1.31016E-04    0.251910    0.159603
   2   7     80.0     90.0     90.0    1.05471E-01    1.61265E-04    2.80853E-02    2.82466E-02    1.19506E-04    0.266285    0.161796
   1   1     87.5      0.0    180.0    1.79611E-01    1.44339E-04    4.92627E-02    4.94070E-02    1.06963E-04    0.274274    0.183348
   1   4     87.5     45.0    135.0    1.61895E-01    1.28537E-04    4.88792E-02    4.90078E-02    9.52528E-05    0.301919    0.183212
   1   7     87.5     90.0     90.0    1.47454E-01    1.37842E-04    4.94409E-02    4.95787E-02    1.02148E-04    0.335298    0.193392



  K-functions (units of 1/meter) at  610.0 nm
     (These are accurate local (at depth z) values only when zupper and zlower are closely spaced.)

    zupper    zlower       z           Kou(z)         Kod(z)          Ko(z)          Ku(z)          Kd(z)        Knet(z)         KLu(z)

     0.000     0.010     0.005     2.7393E-01     3.0508E-01     3.0501E-01     2.6198E-01     3.0277E-01     3.0282E-01     2.5730E-01
     5.000     5.010     5.005     2.1516E-01     3.0458E-01     3.0432E-01     2.1110E-01     3.0387E-01     3.0401E-01     2.0219E-01
    10.000    10.010    10.005     1.5970E-01     3.0968E-01     3.0888E-01     1.4297E-01     3.0985E-01     3.1032E-01     1.0047E-01
    15.000    15.010    15.005    -5.1099E-02     3.2021E-01     3.1400E-01    -1.0294E-01     3.2157E-01     3.2627E-01    -1.3410E-01
    19.990    20.000    19.995    -1.1498E+00     2.9747E-01    -1.0160E-01    -5.1961E-01     3.0810E-01     5.3404E-01    -2.5433E-01


     Waveband  11 of  15 completed in    0.7 sec.



  * * * * * Output for wavelength band   12 ( 620.0 to  640.0 nm; nominal wavelength =  630.0 nm)  * * * * *
 

  RADTRANX clear-sky spectral irradiances averaged over the band from 620.0 nm to 640.0 nm:
          Ed(diffuse) =  3.391E-01     Ed(direct) =  9.726E-01     Ed(total) =  1.312E+00


  Absorption Coefficients of Individual Components at  630.0 nm

  iz   Geo Depth  Opt Depth   Comp 1   Comp 2   Comp 3   Comp 4    Total                                                                                                                                                                                        
          (m)                  (1/m)    (1/m)    (1/m)    (1/m)     (1/m)                                                                                                                                                                                       

   1     0.000      0.000     0.2941   0.0079   0.0000   0.0000   0.3020
   3     5.000      2.476     0.2941   0.0111   0.0000   0.0000   0.3052
   5    10.000      5.292     0.2941   0.0190   0.0000   0.0000   0.3131
   7    15.000      8.679     0.2941   0.0333   0.0000   0.0000   0.3274
  10    20.000     12.180     0.2941   0.0238   0.0000   0.0000   0.3179


  Scattering Coefficients of Individual Components at  630.0 nm

  iz   Geo Depth  Opt Depth   Comp 1   Comp 2   Comp 3   Comp 4    Total                                                                                                                                                                                        
          (m)                  (1/m)    (1/m)    (1/m)    (1/m)     (1/m)                                                                                                                                                                                       

   1     0.000      0.000     0.0010   0.1704   0.0000   0.0000   0.1714
   3     5.000      2.476     0.0010   0.2099   0.0000   0.0000   0.2109
   5    10.000      5.292     0.0010   0.2932   0.0000   0.0000   0.2942
   7    15.000      8.679     0.0010   0.4149   0.0000   0.0000   0.4158
  10    20.000     12.180     0.0010   0.3368   0.0000   0.0000   0.3377


  Backscattering Coefficients of Individual Components at  630.0 nm
  (computed from the scattering coefficients and the phase functions)

  iz   Geo Depth  Opt Depth   Comp 1   Comp 2   Comp 3   Comp 4    Total                                                                                                                                                                                        
          (m)                  (1/m)    (1/m)    (1/m)    (1/m)     (1/m)                                                                                                                                                                                       

   1     0.000      0.000    0.00048  0.00017  0.00000  0.00000  0.00065
   3     5.000      2.476    0.00048  0.00021  0.00000  0.00000  0.00069
   5    10.000      5.292    0.00048  0.00029  0.00000  0.00000  0.00078
   7    15.000      8.679    0.00048  0.00041  0.00000  0.00000  0.00090
  10    20.000     12.180    0.00048  0.00034  0.00000  0.00000  0.00082


  Summary of Inherent Optical Properties at  630.0 nm

  iz  Geo Depth  Opt Depth    total a   total b    total c    albedo   total bb  total bb/b
          (m)                  (1/m)      (1/m)               (1/m)

   1     0.000      0.000      0.3020    0.1714     0.4734    0.3620    0.00065    0.00382
   3     5.000      2.476      0.3052    0.2109     0.5161    0.4087    0.00069    0.00329
   5    10.000      5.292      0.3131    0.2942     0.6073    0.4844    0.00078    0.00264
   7    15.000      8.679      0.3274    0.4158     0.7432    0.5595    0.00090    0.00216
  10    20.000     12.180      0.3179    0.3377     0.6556    0.5151    0.00082    0.00243

     The bottom reflectance at wavelength 630.0 nm is R = 0.186



  Spectral Irradiances [units of W/(m^2 nm)], Mean Cosines (mubars), and Irradiance Reflectance at  630.0 nm

   iz     z(m)     zeta        Eou            Eod             Eo             Eu             Ed      mubar_u  mubar_d    mubar      R = Eu/Ed

             in air         1.2179E-01     1.8125E+00     1.9343E+00     4.3684E-02     1.3117E+00   0.3587   0.7237   0.6555     3.3303E-02

    1     0.00     0.00     2.4832E-03     1.4112E+00     1.4137E+00     1.1122E-03     1.2691E+00   0.4479   0.8993   0.8970     8.7635E-04
    3     5.00     2.48     6.4835E-04     2.6002E-01     2.6067E-01     2.9859E-04     2.3533E-01   0.4605   0.9050   0.9016     1.2688E-03
    5    10.00     5.29     2.3613E-04     4.7102E-02     4.7338E-02     1.1332E-04     4.2702E-02   0.4799   0.9066   0.8997     2.6538E-03
    7    15.00     8.68     1.3376E-04     8.1294E-03     8.2631E-03     7.2999E-05     7.3386E-03   0.5458   0.9027   0.8793     9.9472E-03
   10    20.00    12.18     4.7229E-04     1.4325E-03     1.9048E-03     2.3615E-04     1.2705E-03   0.5000   0.8869   0.5430     1.8587E-01



  Selected Spectral Radiances [units of W/(m^2 sr nm)] and Radiance-Irradiance Ratios at  630.0 nm

  [(theta,phi) are the directions of radiance propagation (theta = 0 is downward, phi = 0 is downwind).]

   iz       z     zeta       Lu(z)        Ld(z)    Lh(z,phi=0)  Lh(z,phi=90) Lh(z,phi=180)    Lu/Ed      Q = Eu/Lu       Lw       Rrs = Lw/Ed
           (m)            (theta=180)   (theta=0)   (theta=90)   (theta=90)   (theta=90)      (1/sr)       (sr)      (theta=180)    (1/sr)

             in air        7.573E-03    9.223E-02    1.096E-01    9.427E-02    1.416E-01    5.774E-03    5.768E+00    1.788E-04    1.363E-04

    1     0.00     0.00    3.312E-04    1.710E-01    7.198E-04    7.630E-04    1.060E-03    2.609E-04    3.359E+00
    3     5.00     2.48    9.199E-05    4.499E-02    1.283E-04    1.422E-04    2.070E-04    3.909E-04    3.246E+00
    5    10.00     5.29    3.758E-05    1.168E-02    4.282E-05    4.669E-05    6.229E-05    8.800E-04    3.016E+00
    7    15.00     8.68    3.023E-05    2.913E-03    1.849E-05    1.946E-05    2.299E-05    4.119E-03    2.415E+00
   10    20.00    12.18    7.517E-05    6.873E-04    4.446E-05    4.454E-05    4.484E-05    5.916E-02    3.142E+00



  Spectral Radiances Just Above the Water Surface (at z = a) [units of W/(m^2 sr nm)] at  630.0 nm
  and f/Q = Lu/[Ed (bb/a)] [units of 1/sr] just below the surface (at z = 0)

   [(Theta,Phi) are the directions of radiance propagation.
   For sky radiances only, theta is measured from 0 at the zenith.
   IF the sun is at phi = 0, solar radiance propagates in the Phi = 180 direction, and then
   Phi = 45 represents the 135 degree viewing angle for minimizing sun glitter.]

   I   J    Theta      Phi  Phi-view      L(sky)      L(water-lv)    L(refl-sky)    L(total up)       Rrs           rho       f/Q(z=0)
           (zenith)                                                                                             (Lrefl/Lsky)   [1/sr]
  10   1      0.0      0.0      0.0    9.22283E-02    1.78822E-04    7.39456E-03    7.57338E-03    1.36328E-04    0.080177    0.120364
   9   1     10.0      0.0    180.0    5.77954E-02    1.84473E-04    1.94190E-03    2.12638E-03    1.40637E-04    0.033600    0.124891
   9   4     10.0     45.0    135.0    6.33283E-02    1.82044E-04    2.46832E-03    2.65037E-03    1.38785E-04    0.038977    0.123423
   9   7     10.0     90.0     90.0    8.47238E-02    1.77723E-04    5.23971E-03    5.41744E-03    1.35491E-04    0.061845    0.120003
   8   1     20.0      0.0    180.0    4.50742E-02    1.87077E-04    1.08347E-03    1.27054E-03    1.42622E-04    0.024037    0.126719
   8   4     20.0     45.0    135.0    5.01757E-02    1.83456E-04    1.32541E-03    1.50887E-03    1.39861E-04    0.026415    0.125491
   8   7     20.0     90.0     90.0    7.36496E-02    1.77490E-04    3.01744E-03    3.19493E-03    1.35313E-04    0.040970    0.119224
   7   1     30.0      0.0    180.0    3.89519E-02    1.88874E-04    9.44235E-04    1.13311E-03    1.43992E-04    0.024241    0.130899
   7   4     30.0     45.0    135.0    4.31787E-02    1.85922E-04    1.05450E-03    1.24042E-03    1.41741E-04    0.024422    0.127126
   7   7     30.0     90.0     90.0    6.32702E-02    1.76301E-04    1.82791E-03    2.00421E-03    1.34406E-04    0.028890    0.118393
   6   1     40.0      0.0    180.0    3.69345E-02    1.90686E-04    1.04557E-03    1.23625E-03    1.45374E-04    0.028309    0.133895
   6   4     40.0     45.0    135.0    4.03955E-02    1.85619E-04    1.13338E-03    1.31900E-03    1.41510E-04    0.028057    0.128637
   6   7     40.0     90.0     90.0    5.68362E-02    1.73458E-04    1.64462E-03    1.81807E-03    1.32239E-04    0.028936    0.118266
   5   1     50.0      0.0    180.0    3.87387E-02    1.90276E-04    1.65371E-03    1.84399E-03    1.45061E-04    0.042689    0.136760
   5   4     50.0     45.0    135.0    4.12847E-02    1.83648E-04    1.71374E-03    1.89738E-03    1.40008E-04    0.041510    0.130783
   5   7     50.0     90.0     90.0    5.49277E-02    1.70192E-04    2.22061E-03    2.39080E-03    1.29749E-04    0.040428    0.120063
   4   1     60.0      0.0    180.0    4.60673E-02    1.85913E-04    3.86822E-03    4.05413E-03    1.41734E-04    0.083969    0.140987
   4   4     60.0     45.0    135.0    4.71103E-02    1.78691E-04    3.81282E-03    3.99151E-03    1.36229E-04    0.080934    0.134896
   4   7     60.0     90.0     90.0    5.81517E-02    1.64783E-04    4.44482E-03    4.60960E-03    1.25625E-04    0.076435    0.125693
   3   1     70.0      0.0    180.0    6.42095E-02    1.70434E-04    1.06560E-02    1.08265E-02    1.29934E-04    0.165957    0.148602
   3   4     70.0     45.0    135.0    6.24000E-02    1.62844E-04    1.02246E-02    1.03874E-02    1.24147E-04    0.163855    0.143256
   3   7     70.0     90.0     90.0    6.96523E-02    1.49905E-04    1.10678E-02    1.12177E-02    1.14283E-04    0.158901    0.138280
   2   1     80.0      0.0    180.0    1.10019E-01    1.41546E-04    2.64872E-02    2.66288E-02    1.07910E-04    0.240751    0.163255
   2   4     80.0     45.0    135.0    1.01868E-01    1.37785E-04    2.56616E-02    2.57994E-02    1.05043E-04    0.251910    0.159910
   2   7     80.0     90.0     90.0    1.00936E-01    1.25935E-04    2.68777E-02    2.70037E-02    9.60092E-05    0.266285    0.163176
   1   1     87.5      0.0    180.0    1.71888E-01    1.12467E-04    4.71445E-02    4.72570E-02    8.57411E-05    0.274274    0.185014
   1   4     87.5     45.0    135.0    1.54934E-01    1.00219E-04    4.67776E-02    4.68778E-02    7.64043E-05    0.301919    0.185322
   1   7     87.5     90.0     90.0    1.41114E-01    1.07739E-04    4.73151E-02    4.74228E-02    8.21367E-05    0.335298    0.196935



  K-functions (units of 1/meter) at  630.0 nm
     (These are accurate local (at depth z) values only when zupper and zlower are closely spaced.)

    zupper    zlower       z           Kou(z)         Kod(z)          Ko(z)          Ku(z)          Kd(z)        Knet(z)         KLu(z)

     0.000     0.010     0.005     3.0323E-01     3.3932E-01     3.3926E-01     2.9167E-01     3.3651E-01     3.3655E-01     2.8626E-01
     5.000     5.010     5.005     2.3297E-01     3.3858E-01     3.3831E-01     2.2783E-01     3.3771E-01     3.3785E-01     2.2008E-01
    10.000    10.010    10.005     1.7088E-01     3.4492E-01     3.4405E-01     1.5943E-01     3.4506E-01     3.4555E-01     1.3344E-01
    15.000    15.010    15.005     1.1349E-02     3.5739E-01     3.5178E-01    -3.1404E-02     3.5911E-01     3.6304E-01    -7.5865E-02
    19.990    20.000    19.995    -1.1881E+00     3.2848E-01    -4.5411E-02    -5.3704E-01     3.4014E-01     5.3933E-01    -2.5944E-01


     Waveband  12 of  15 completed in    0.8 sec.



  * * * * * Output for wavelength band   13 ( 640.0 to  660.0 nm; nominal wavelength =  650.0 nm)  * * * * *
 

  RADTRANX clear-sky spectral irradiances averaged over the band from 640.0 nm to 660.0 nm:
          Ed(diffuse) =  3.150E-01     Ed(direct) =  9.206E-01     Ed(total) =  1.236E+00


  Absorption Coefficients of Individual Components at  650.0 nm

  iz   Geo Depth  Opt Depth   Comp 1   Comp 2   Comp 3   Comp 4    Total                                                                                                                                                                                        
          (m)                  (1/m)    (1/m)    (1/m)    (1/m)     (1/m)                                                                                                                                                                                       

   1     0.000      0.000     0.3428   0.0089   0.0000   0.0000   0.3517
   3     5.000      2.695     0.3428   0.0125   0.0000   0.0000   0.3552
   5    10.000      5.724     0.3428   0.0214   0.0000   0.0000   0.3641
   7    15.000      9.315     0.3428   0.0374   0.0000   0.0000   0.3802
  10    20.000     13.019     0.3428   0.0267   0.0000   0.0000   0.3695


  Scattering Coefficients of Individual Components at  650.0 nm

  iz   Geo Depth  Opt Depth   Comp 1   Comp 2   Comp 3   Comp 4    Total                                                                                                                                                                                        
          (m)                  (1/m)    (1/m)    (1/m)    (1/m)     (1/m)                                                                                                                                                                                       

   1     0.000      0.000     0.0009   0.1652   0.0000   0.0000   0.1660
   3     5.000      2.695     0.0009   0.2035   0.0000   0.0000   0.2043
   5    10.000      5.724     0.0009   0.2842   0.0000   0.0000   0.2851
   7    15.000      9.315     0.0009   0.4021   0.0000   0.0000   0.4030
  10    20.000     13.019     0.0009   0.3264   0.0000   0.0000   0.3272


  Backscattering Coefficients of Individual Components at  650.0 nm
  (computed from the scattering coefficients and the phase functions)

  iz   Geo Depth  Opt Depth   Comp 1   Comp 2   Comp 3   Comp 4    Total                                                                                                                                                                                        
          (m)                  (1/m)    (1/m)    (1/m)    (1/m)     (1/m)                                                                                                                                                                                       

   1     0.000      0.000    0.00043  0.00017  0.00000  0.00000  0.00059
   3     5.000      2.695    0.00043  0.00020  0.00000  0.00000  0.00063
   5    10.000      5.724    0.00043  0.00028  0.00000  0.00000  0.00071
   7    15.000      9.315    0.00043  0.00040  0.00000  0.00000  0.00083
  10    20.000     13.019    0.00043  0.00033  0.00000  0.00000  0.00075


  Summary of Inherent Optical Properties at  650.0 nm

  iz  Geo Depth  Opt Depth    total a   total b    total c    albedo   total bb  total bb/b
          (m)                  (1/m)      (1/m)               (1/m)

   1     0.000      0.000      0.3517    0.1660     0.5177    0.3207    0.00059    0.00356
   3     5.000      2.695      0.3552    0.2043     0.5596    0.3652    0.00063    0.00308
   5    10.000      5.724      0.3641    0.2851     0.6492    0.4391    0.00071    0.00249
   7    15.000      9.315      0.3802    0.4030     0.7831    0.5146    0.00083    0.00205
  10    20.000     13.019      0.3695    0.3272     0.6967    0.4697    0.00075    0.00230

     The bottom reflectance at wavelength 650.0 nm is R = 0.169



  Spectral Irradiances [units of W/(m^2 nm)], Mean Cosines (mubars), and Irradiance Reflectance at  650.0 nm

   iz     z(m)     zeta        Eou            Eod             Eo             Eu             Ed      mubar_u  mubar_d    mubar      R = Eu/Ed

             in air         1.1345E-01     1.7035E+00     1.8169E+00     4.0878E-02     1.2356E+00   0.3603   0.7253   0.6575     3.3085E-02

    1     0.00     0.00     1.8761E-03     1.3286E+00     1.3305E+00     8.3954E-04     1.1955E+00   0.4475   0.8998   0.8979     7.0223E-04
    3     5.00     2.70     4.5408E-04     1.8611E-01     1.8656E-01     2.1316E-04     1.6880E-01   0.4694   0.9070   0.9036     1.2628E-03
    5    10.00     5.72     2.0420E-04     2.5726E-02     2.5930E-02     1.0005E-04     2.3359E-02   0.4900   0.9080   0.8970     4.2833E-03
    7    15.00     9.32     1.2821E-04     3.4445E-03     3.5727E-03     6.3857E-05     3.0831E-03   0.4981   0.8951   0.8451     2.0712E-02
   10    20.00    13.02     1.4679E-04     5.1499E-04     6.6178E-04     7.3397E-05     4.3420E-04   0.5000   0.8431   0.5452     1.6904E-01



  Selected Spectral Radiances [units of W/(m^2 sr nm)] and Radiance-Irradiance Ratios at  650.0 nm

  [(theta,phi) are the directions of radiance propagation (theta = 0 is downward, phi = 0 is downwind).]

   iz       z     zeta       Lu(z)        Ld(z)    Lh(z,phi=0)  Lh(z,phi=90) Lh(z,phi=180)    Lu/Ed      Q = Eu/Lu       Lw       Rrs = Lw/Ed
           (m)            (theta=180)   (theta=0)   (theta=90)   (theta=90)   (theta=90)      (1/sr)       (sr)      (theta=180)    (1/sr)

             in air        7.093E-03    8.567E-02    1.018E-01    8.755E-02    1.315E-01    5.740E-03    5.763E+00    1.348E-04    1.091E-04

    1     0.00     0.00    2.496E-04    1.589E-01    5.720E-04    6.143E-04    8.666E-04    2.088E-04    3.363E+00
    3     5.00     2.70    6.668E-05    3.243E-02    8.554E-05    9.408E-05    1.322E-04    3.950E-04    3.197E+00
    5    10.00     5.72    3.237E-05    6.503E-03    3.467E-05    3.645E-05    4.341E-05    1.386E-03    3.091E+00
    7    15.00     9.32    2.122E-05    1.253E-03    2.151E-05    2.185E-05    2.303E-05    6.881E-03    3.010E+00
   10    20.00    13.02    2.336E-05    2.360E-04    1.819E-05    1.822E-05    1.829E-05    5.381E-02    3.142E+00



  Spectral Radiances Just Above the Water Surface (at z = a) [units of W/(m^2 sr nm)] at  650.0 nm
  and f/Q = Lu/[Ed (bb/a)] [units of 1/sr] just below the surface (at z = 0)

   [(Theta,Phi) are the directions of radiance propagation.
   For sky radiances only, theta is measured from 0 at the zenith.
   IF the sun is at phi = 0, solar radiance propagates in the Phi = 180 direction, and then
   Phi = 45 represents the 135 degree viewing angle for minimizing sun glitter.]

   I   J    Theta      Phi  Phi-view      L(sky)      L(water-lv)    L(refl-sky)    L(total up)       Rrs           rho       f/Q(z=0)
           (zenith)                                                                                             (Lrefl/Lsky)   [1/sr]
  10   1      0.0      0.0      0.0    8.56669E-02    1.34808E-04    6.95789E-03    7.09270E-03    1.09107E-04    0.081220    0.124361
   9   1     10.0      0.0    180.0    5.36836E-02    1.38866E-04    1.81253E-03    1.95139E-03    1.12391E-04    0.033763    0.128823
   9   4     10.0     45.0    135.0    5.88229E-02    1.37099E-04    2.30804E-03    2.44514E-03    1.10961E-04    0.039237    0.127373
   9   7     10.0     90.0     90.0    7.86963E-02    1.33993E-04    4.92142E-03    5.05541E-03    1.08447E-04    0.062537    0.124004
   8   1     20.0      0.0    180.0    4.18675E-02    1.40732E-04    1.00658E-03    1.14732E-03    1.13901E-04    0.024042    0.130600
   8   4     20.0     45.0    135.0    4.66060E-02    1.38087E-04    1.23306E-03    1.37114E-03    1.11761E-04    0.026457    0.129408
   8   7     20.0     90.0     90.0    6.84099E-02    1.33839E-04    2.82343E-03    2.95727E-03    1.08322E-04    0.041272    0.123235
   7   1     30.0      0.0    180.0    3.61807E-02    1.41997E-04    8.77059E-04    1.01906E-03    1.14925E-04    0.024241    0.134735
   7   4     30.0     45.0    135.0    4.01068E-02    1.39879E-04    9.79550E-04    1.11943E-03    1.13211E-04    0.024424    0.131014
   7   7     30.0     90.0     90.0    5.87689E-02    1.32970E-04    1.70170E-03    1.83467E-03    1.07619E-04    0.028956    0.122427
   6   1     40.0      0.0    180.0    3.43069E-02    1.43227E-04    9.71182E-04    1.11441E-03    1.15920E-04    0.028309    0.137691
   6   4     40.0     45.0    135.0    3.75217E-02    1.39587E-04    1.05275E-03    1.19233E-03    1.12974E-04    0.028057    0.132512
   6   7     40.0     90.0     90.0    5.27927E-02    1.30868E-04    1.52794E-03    1.65881E-03    1.05918E-04    0.028942    0.122354
   5   1     50.0      0.0    180.0    3.59827E-02    1.42840E-04    1.53606E-03    1.67890E-03    1.15608E-04    0.042689    0.140549
   5   4     50.0     45.0    135.0    3.83475E-02    1.38068E-04    1.59182E-03    1.72988E-03    1.11745E-04    0.041510    0.134681
   5   7     50.0     90.0     90.0    5.10200E-02    1.28437E-04    2.06263E-03    2.19107E-03    1.03950E-04    0.040428    0.124263
   4   1     60.0      0.0    180.0    4.27899E-02    1.39500E-04    3.59302E-03    3.73252E-03    1.12904E-04    0.083969    0.144836
   4   4     60.0     45.0    135.0    4.37587E-02    1.34310E-04    3.54156E-03    3.67587E-03    1.08703E-04    0.080934    0.138895
   4   7     60.0     90.0     90.0    5.40145E-02    1.24386E-04    4.12860E-03    4.25298E-03    1.00672E-04    0.076435    0.130129
   3   1     70.0      0.0    180.0    5.96414E-02    1.27843E-04    9.89791E-03    1.00258E-02    1.03469E-04    0.165957    0.152645
   3   4     70.0     45.0    135.0    5.79606E-02    1.22379E-04    9.49716E-03    9.61954E-03    9.90472E-05    0.163855    0.147511
   3   7     70.0     90.0     90.0    6.46969E-02    1.13179E-04    1.02804E-02    1.03936E-02    9.16011E-05    0.158901    0.143196
   2   1     80.0      0.0    180.0    1.02192E-01    1.06145E-04    2.46028E-02    2.47090E-02    8.59086E-05    0.240751    0.167784
   2   4     80.0     45.0    135.0    9.46210E-02    1.03533E-04    2.38360E-02    2.39395E-02    8.37945E-05    0.251910    0.164760
   2   7     80.0     90.0     90.0    9.37552E-02    9.50985E-05    2.49656E-02    2.50607E-02    7.69678E-05    0.266285    0.169104
   1   1     87.5      0.0    180.0    1.59659E-01    8.43231E-05    4.37905E-02    4.38748E-02    6.82468E-05    0.274274    0.190219
   1   4     87.5     45.0    135.0    1.43912E-01    7.53002E-05    4.34496E-02    4.35249E-02    6.09441E-05    0.301919    0.191105
   1   7     87.5     90.0     90.0    1.31074E-01    8.13681E-05    4.39489E-02    4.40303E-02    6.58551E-05    0.335298    0.204342



  K-functions (units of 1/meter) at  650.0 nm
     (These are accurate local (at depth z) values only when zupper and zlower are closely spaced.)

    zupper    zlower       z           Kou(z)         Kod(z)          Ko(z)          Ku(z)          Kd(z)        Knet(z)         KLu(z)

     0.000     0.010     0.005     3.4574E-01     3.9503E-01     3.9496E-01     3.2815E-01     3.9143E-01     3.9147E-01     3.1955E-01
     5.000     5.010     5.005     2.1577E-01     3.9292E-01     3.9249E-01     2.0649E-01     3.9192E-01     3.9215E-01     1.9769E-01
    10.000    10.010    10.005     1.1058E-01     3.9839E-01     3.9612E-01     1.0603E-01     3.9906E-01     4.0033E-01     1.0366E-01
    15.000    15.010    15.005     9.9031E-02     4.0266E-01     3.9175E-01     8.8651E-02     4.0899E-01     4.1578E-01     6.9096E-02
    19.990    20.000    19.995    -7.3211E-01     3.4624E-01     1.0804E-01    -3.2267E-01     3.6890E-01     5.0899E-01    -1.3913E-01


     Waveband  13 of  15 completed in    0.9 sec.



  * * * * * Output for wavelength band   14 ( 660.0 to  680.0 nm; nominal wavelength =  670.0 nm)  * * * * *
 

  RADTRANX clear-sky spectral irradiances averaged over the band from 660.0 nm to 680.0 nm:
          Ed(diffuse) =  3.129E-01     Ed(direct) =  9.303E-01     Ed(total) =  1.243E+00


  Absorption Coefficients of Individual Components at  670.0 nm

  iz   Geo Depth  Opt Depth   Comp 1   Comp 2   Comp 3   Comp 4    Total                                                                                                                                                                                        
          (m)                  (1/m)    (1/m)    (1/m)    (1/m)     (1/m)                                                                                                                                                                                       

   1     0.000      0.000     0.4412   0.0149   0.0000   0.0000   0.4561
   3     5.000      3.195     0.4412   0.0208   0.0000   0.0000   0.4621
   5    10.000      6.736     0.4412   0.0357   0.0000   0.0000   0.4769
   7    15.000     10.866     0.4412   0.0625   0.0000   0.0000   0.5037
  10    20.000     15.115     0.4412   0.0446   0.0000   0.0000   0.4859


  Scattering Coefficients of Individual Components at  670.0 nm

  iz   Geo Depth  Opt Depth   Comp 1   Comp 2   Comp 3   Comp 4    Total                                                                                                                                                                                        
          (m)                  (1/m)    (1/m)    (1/m)    (1/m)     (1/m)                                                                                                                                                                                       

   1     0.000      0.000     0.0008   0.1602   0.0000   0.0000   0.1610
   3     5.000      3.195     0.0008   0.1974   0.0000   0.0000   0.1982
   5    10.000      6.736     0.0008   0.2757   0.0000   0.0000   0.2765
   7    15.000     10.866     0.0008   0.3901   0.0000   0.0000   0.3909
  10    20.000     15.115     0.0008   0.3167   0.0000   0.0000   0.3174


  Backscattering Coefficients of Individual Components at  670.0 nm
  (computed from the scattering coefficients and the phase functions)

  iz   Geo Depth  Opt Depth   Comp 1   Comp 2   Comp 3   Comp 4    Total                                                                                                                                                                                        
          (m)                  (1/m)    (1/m)    (1/m)    (1/m)     (1/m)                                                                                                                                                                                       

   1     0.000      0.000    0.00038  0.00016  0.00000  0.00000  0.00054
   3     5.000      3.195    0.00038  0.00020  0.00000  0.00000  0.00057
   5    10.000      6.736    0.00038  0.00028  0.00000  0.00000  0.00065
   7    15.000     10.866    0.00038  0.00039  0.00000  0.00000  0.00077
  10    20.000     15.115    0.00038  0.00032  0.00000  0.00000  0.00069


  Summary of Inherent Optical Properties at  670.0 nm

  iz  Geo Depth  Opt Depth    total a   total b    total c    albedo   total bb  total bb/b
          (m)                  (1/m)      (1/m)               (1/m)

   1     0.000      0.000      0.4561    0.1610     0.6171    0.2609    0.00054    0.00333
   3     5.000      3.195      0.4621    0.1982     0.6602    0.3001    0.00057    0.00289
   5    10.000      6.736      0.4769    0.2765     0.7534    0.3670    0.00065    0.00235
   7    15.000     10.866      0.5037    0.3909     0.8946    0.4369    0.00077    0.00196
  10    20.000     15.115      0.4859    0.3174     0.8033    0.3951    0.00069    0.00218

     The bottom reflectance at wavelength 670.0 nm is R = 0.088



  Spectral Irradiances [units of W/(m^2 nm)], Mean Cosines (mubars), and Irradiance Reflectance at  670.0 nm

   iz     z(m)     zeta        Eou            Eod             Eo             Eu             Ed      mubar_u  mubar_d    mubar      R = Eu/Ed

             in air         1.1356E-01     1.7105E+00     1.8240E+00     4.1189E-02     1.2432E+00   0.3627   0.7268   0.6590     3.3132E-02

    1     0.00     0.00     2.6602E-03     1.3371E+00     1.3398E+00     1.2548E-03     1.2032E+00   0.4717   0.8999   0.8971     1.0429E-03
    3     5.00     3.20     1.5674E-03     1.0599E-01     1.0755E-01     7.8640E-04     9.5943E-02   0.5017   0.9052   0.8847     8.1965E-03
    5    10.00     6.74     1.6037E-03     9.4950E-03     1.1099E-02     8.0282E-04     8.0404E-03   0.5006   0.8468   0.6521     9.9848E-02
    7    15.00    10.87     1.3793E-03     2.1393E-03     3.5186E-03     6.5917E-04     1.2994E-03   0.4779   0.6074   0.1820     5.0728E-01
   10    20.00    15.11     8.9371E-05     9.3234E-04     1.0217E-03     4.4686E-05     5.0566E-04   0.5000   0.5424   0.4512     8.8370E-02



  Selected Spectral Radiances [units of W/(m^2 sr nm)] and Radiance-Irradiance Ratios at  670.0 nm

  [(theta,phi) are the directions of radiance propagation (theta = 0 is downward, phi = 0 is downwind).]

   iz       z     zeta       Lu(z)        Ld(z)    Lh(z,phi=0)  Lh(z,phi=90) Lh(z,phi=180)    Lu/Ed      Q = Eu/Lu       Lw       Rrs = Lw/Ed
           (m)            (theta=180)   (theta=0)   (theta=90)   (theta=90)   (theta=90)      (1/sr)       (sr)      (theta=180)    (1/sr)

             in air        7.202E-03    8.509E-02    1.011E-01    8.699E-02    1.307E-01    5.793E-03    5.719E+00    2.082E-04    1.674E-04

    1     0.00     0.00    3.854E-04    1.578E-01    7.029E-04    7.459E-04    9.653E-04    3.203E-04    3.256E+00
    3     5.00     3.20    2.543E-04    1.905E-02    2.460E-04    2.496E-04    2.654E-04    2.650E-03    3.092E+00
    5    10.00     6.74    2.538E-04    2.389E-03    2.520E-04    2.524E-04    2.540E-04    3.157E-02    3.163E+00
    7    15.00    10.87    1.903E-04    4.770E-04    2.487E-04    2.487E-04    2.489E-04    1.464E-01    3.464E+00
   10    20.00    15.11    1.422E-05    1.864E-04    6.718E-05    6.719E-05    6.719E-05    2.813E-02    3.142E+00



  Spectral Radiances Just Above the Water Surface (at z = a) [units of W/(m^2 sr nm)] at  670.0 nm
  and f/Q = Lu/[Ed (bb/a)] [units of 1/sr] just below the surface (at z = 0)

   [(Theta,Phi) are the directions of radiance propagation.
   For sky radiances only, theta is measured from 0 at the zenith.
   IF the sun is at phi = 0, solar radiance propagates in the Phi = 180 direction, and then
   Phi = 45 represents the 135 degree viewing angle for minimizing sun glitter.]

   I   J    Theta      Phi  Phi-view      L(sky)      L(water-lv)    L(refl-sky)    L(total up)       Rrs           rho       f/Q(z=0)
           (zenith)                                                                                             (Lrefl/Lsky)   [1/sr]
  10   1      0.0      0.0      0.0    8.50905E-02    2.08160E-04    6.99389E-03    7.20205E-03    1.67444E-04    0.082193    0.272948
   9   1     10.0      0.0    180.0    5.33225E-02    2.10882E-04    1.80846E-03    2.01934E-03    1.69633E-04    0.033916    0.277345
   9   4     10.0     45.0    135.0    5.84272E-02    2.09305E-04    2.30670E-03    2.51601E-03    1.68364E-04    0.039480    0.275915
   9   7     10.0     90.0     90.0    7.81668E-02    2.07158E-04    4.93877E-03    5.14593E-03    1.66637E-04    0.063182    0.272601
   8   1     20.0      0.0    180.0    4.15858E-02    2.12208E-04    9.99996E-04    1.21220E-03    1.70700E-04    0.024047    0.279091
   8   4     20.0     45.0    135.0    4.62925E-02    2.09543E-04    1.22656E-03    1.43610E-03    1.68556E-04    0.026496    0.277941
   8   7     20.0     90.0     90.0    6.79496E-02    2.07332E-04    2.82358E-03    3.03091E-03    1.66777E-04    0.041554    0.271870
   7   1     30.0      0.0    180.0    3.59373E-02    2.12748E-04    8.71158E-04    1.08391E-03    1.71134E-04    0.024241    0.283250
   7   4     30.0     45.0    135.0    3.98370E-02    2.11188E-04    9.73029E-04    1.18422E-03    1.69880E-04    0.024425    0.279586
   7   7     30.0     90.0     90.0    5.83735E-02    2.06457E-04    1.69380E-03    1.90026E-03    1.66074E-04    0.029017    0.271156
   6   1     40.0      0.0    180.0    3.40761E-02    2.12147E-04    9.64648E-04    1.17679E-03    1.70650E-04    0.028309    0.286319
   6   4     40.0     45.0    135.0    3.72692E-02    2.09719E-04    1.04567E-03    1.25539E-03    1.68698E-04    0.028057    0.281225
   6   7     40.0     90.0     90.0    5.24375E-02    2.03788E-04    1.51797E-03    1.72176E-03    1.63927E-04    0.028948    0.271287
   5   1     50.0      0.0    180.0    3.57406E-02    2.10196E-04    1.52572E-03    1.73592E-03    1.69082E-04    0.042689    0.289468
   5   4     50.0     45.0    135.0    3.80895E-02    2.06765E-04    1.58111E-03    1.78787E-03    1.66322E-04    0.041510    0.283715
   5   7     50.0     90.0     90.0    5.06767E-02    2.00177E-04    2.04875E-03    2.24893E-03    1.61022E-04    0.040428    0.273602
   4   1     60.0      0.0    180.0    4.25020E-02    2.04112E-04    3.56885E-03    3.77296E-03    1.64187E-04    0.083969    0.294322
   4   4     60.0     45.0    135.0    4.34643E-02    2.00495E-04    3.51774E-03    3.71823E-03    1.61278E-04    0.080934    0.288533
   4   7     60.0     90.0     90.0    5.36512E-02    1.93825E-04    4.10082E-03    4.29465E-03    1.55912E-04    0.076435    0.280199
   3   1     70.0      0.0    180.0    5.92402E-02    1.86132E-04    9.83132E-03    1.00175E-02    1.49724E-04    0.165957    0.303069
   3   4     70.0     45.0    135.0    5.75707E-02    1.82007E-04    9.43326E-03    9.61527E-03    1.46406E-04    0.163855    0.298147
   3   7     70.0     90.0     90.0    6.42617E-02    1.75784E-04    1.02113E-02    1.03870E-02    1.41400E-04    0.158901    0.294477
   2   1     80.0      0.0    180.0    1.01504E-01    1.53792E-04    2.44373E-02    2.45911E-02    1.23710E-04    0.240751    0.319685
   2   4     80.0     45.0    135.0    9.39844E-02    1.53334E-04    2.36756E-02    2.38290E-02    1.23342E-04    0.251910    0.316982
   2   7     80.0     90.0     90.0    9.31244E-02    1.46996E-04    2.47976E-02    2.49446E-02    1.18243E-04    0.266285    0.322388
   1   1     87.5      0.0    180.0    1.58585E-01    1.21547E-04    4.34959E-02    4.36174E-02    9.77719E-05    0.274274    0.343712
   1   4     87.5     45.0    135.0    1.42944E-01    1.10974E-04    4.31573E-02    4.32683E-02    8.92670E-05    0.301919    0.345686
   1   7     87.5     90.0     90.0    1.30192E-01    1.24852E-04    4.36532E-02    4.37781E-02    1.00431E-04    0.335298    0.360502



  K-functions (units of 1/meter) at  670.0 nm
     (These are accurate local (at depth z) values only when zupper and zlower are closely spaced.)

    zupper    zlower       z           Kou(z)         Kod(z)          Ko(z)          Ku(z)          Kd(z)        Knet(z)         KLu(z)

     0.000     0.010     0.005     2.3535E-01     5.1224E-01     5.1169E-01     2.0805E-01     5.0690E-01     5.0721E-01     1.9242E-01
     5.000     5.010     5.005    -2.7006E-03     5.0271E-01     4.9533E-01    -3.2514E-03     5.0423E-01     5.0843E-01     1.9898E-04
    10.000    10.010    10.005    -1.3788E-02     4.3494E-01     3.6998E-01    -8.5712E-03     4.7021E-01     5.2345E-01     3.1750E-03
    15.000    15.010    15.005     1.4580E-01     1.5282E-01     1.5007E-01     1.5088E-01     2.1937E-01     2.8993E-01     1.6525E-01
    19.990    20.000    19.995     1.4556E+01     1.7352E-01     1.5175E+00     7.0451E+00     1.6831E-01    -5.2414E-01     3.6281E+00


     Waveband  14 of  15 completed in    1.1 sec.



  * * * * * Output for wavelength band   15 ( 680.0 to  700.0 nm; nominal wavelength =  690.0 nm)  * * * * *
 

  RADTRANX clear-sky spectral irradiances averaged over the band from 680.0 nm to 700.0 nm:
          Ed(diffuse) =  2.764E-01     Ed(direct) =  8.348E-01     Ed(total) =  1.111E+00


  Absorption Coefficients of Individual Components at  690.0 nm

  iz   Geo Depth  Opt Depth   Comp 1   Comp 2   Comp 3   Comp 4    Total                                                                                                                                                                                        
          (m)                  (1/m)    (1/m)    (1/m)    (1/m)     (1/m)                                                                                                                                                                                       

   1     0.000      0.000     0.5157   0.0082   0.0000   0.0000   0.5239
   3     5.000      3.501     0.5157   0.0115   0.0000   0.0000   0.5272
   5    10.000      7.316     0.5157   0.0197   0.0000   0.0000   0.5354
   7    15.000     11.660     0.5157   0.0345   0.0000   0.0000   0.5502
  10    20.000     16.109     0.5157   0.0247   0.0000   0.0000   0.5404


  Scattering Coefficients of Individual Components at  690.0 nm

  iz   Geo Depth  Opt Depth   Comp 1   Comp 2   Comp 3   Comp 4    Total                                                                                                                                                                                        
          (m)                  (1/m)    (1/m)    (1/m)    (1/m)     (1/m)                                                                                                                                                                                       

   1     0.000      0.000     0.0007   0.1556   0.0000   0.0000   0.1563
   3     5.000      3.501     0.0007   0.1917   0.0000   0.0000   0.1924
   5    10.000      7.316     0.0007   0.2677   0.0000   0.0000   0.2684
   7    15.000     11.660     0.0007   0.3788   0.0000   0.0000   0.3795
  10    20.000     16.109     0.0007   0.3075   0.0000   0.0000   0.3081


  Backscattering Coefficients of Individual Components at  690.0 nm
  (computed from the scattering coefficients and the phase functions)

  iz   Geo Depth  Opt Depth   Comp 1   Comp 2   Comp 3   Comp 4    Total                                                                                                                                                                                        
          (m)                  (1/m)    (1/m)    (1/m)    (1/m)     (1/m)                                                                                                                                                                                       

   1     0.000      0.000    0.00033  0.00016  0.00000  0.00000  0.00049
   3     5.000      3.501    0.00033  0.00019  0.00000  0.00000  0.00052
   5    10.000      7.316    0.00033  0.00027  0.00000  0.00000  0.00060
   7    15.000     11.660    0.00033  0.00038  0.00000  0.00000  0.00071
  10    20.000     16.109    0.00033  0.00031  0.00000  0.00000  0.00064


  Summary of Inherent Optical Properties at  690.0 nm

  iz  Geo Depth  Opt Depth    total a   total b    total c    albedo   total bb  total bb/b
          (m)                  (1/m)      (1/m)               (1/m)

   1     0.000      0.000      0.5239    0.1563     0.6802    0.2297    0.00049    0.00312
   3     5.000      3.501      0.5272    0.1924     0.7196    0.2673    0.00052    0.00272
   5    10.000      7.316      0.5354    0.2684     0.8038    0.3339    0.00060    0.00223
   7    15.000     11.660      0.5502    0.3795     0.9297    0.4082    0.00071    0.00187
  10    20.000     16.109      0.5404    0.3081     0.8485    0.3632    0.00064    0.00208

     The bottom reflectance at wavelength 690.0 nm is R = 0.193



  Spectral Irradiances [units of W/(m^2 nm)], Mean Cosines (mubars), and Irradiance Reflectance at  690.0 nm

   iz     z(m)     zeta        Eou            Eod             Eo             Eu             Ed      mubar_u  mubar_d    mubar      R = Eu/Ed

             in air         1.0120E-01     1.5262E+00     1.6274E+00     3.6950E-02     1.1113E+00   0.3651   0.7281   0.6601     3.3250E-02

    1     0.00     0.00     3.3839E-03     1.1958E+00     1.1992E+00     1.6263E-03     1.0759E+00   0.4806   0.8998   0.8959     1.5116E-03
    3     5.00     3.50     2.4331E-03     6.7251E-02     6.9684E-02     1.2271E-03     6.0419E-02   0.5043   0.8984   0.8494     2.0310E-02
    5    10.00     7.32     2.6687E-03     6.1158E-03     8.7845E-03     1.3395E-03     4.5287E-03   0.5019   0.7405   0.3630     2.9579E-01
    7    15.00    11.66     2.3936E-03     2.9097E-03     5.3033E-03     1.1480E-03     1.5337E-03   0.4796   0.5271   0.0727     7.4851E-01
   10    20.00    16.11     3.0458E-04     1.4968E-03     1.8014E-03     1.5229E-04     7.9001E-04   0.5000   0.5278   0.3540     1.9277E-01



  Selected Spectral Radiances [units of W/(m^2 sr nm)] and Radiance-Irradiance Ratios at  690.0 nm

  [(theta,phi) are the directions of radiance propagation (theta = 0 is downward, phi = 0 is downwind).]

   iz       z     zeta       Lu(z)        Ld(z)    Lh(z,phi=0)  Lh(z,phi=90) Lh(z,phi=180)    Lu/Ed      Q = Eu/Lu       Lw       Rrs = Lw/Ed
           (m)            (theta=180)   (theta=0)   (theta=90)   (theta=90)   (theta=90)      (1/sr)       (sr)      (theta=180)    (1/sr)

             in air        6.518E-03    7.518E-02    8.935E-02    7.688E-02    1.155E-01    5.865E-03    5.669E+00    2.715E-04    2.443E-04

    1     0.00     0.00    5.027E-04    1.394E-01    8.149E-04    8.537E-04    1.035E-03    4.672E-04    3.235E+00
    3     5.00     3.50    3.979E-04    1.223E-02    3.762E-04    3.782E-04    3.864E-04    6.586E-03    3.084E+00
    5    10.00     7.32    4.258E-04    1.388E-03    4.163E-04    4.165E-04    4.171E-04    9.401E-02    3.146E+00
    7    15.00    11.66    3.346E-04    5.115E-04    4.280E-04    4.281E-04    4.281E-04    2.181E-01    3.431E+00
   10    20.00    16.11    4.848E-05    2.781E-04    1.254E-04    1.254E-04    1.254E-04    6.136E-02    3.142E+00



  Spectral Radiances Just Above the Water Surface (at z = a) [units of W/(m^2 sr nm)] at  690.0 nm
  and f/Q = Lu/[Ed (bb/a)] [units of 1/sr] just below the surface (at z = 0)

   [(Theta,Phi) are the directions of radiance propagation.
   For sky radiances only, theta is measured from 0 at the zenith.
   IF the sun is at phi = 0, solar radiance propagates in the Phi = 180 direction, and then
   Phi = 45 represents the 135 degree viewing angle for minimizing sun glitter.]

   I   J    Theta      Phi  Phi-view      L(sky)      L(water-lv)    L(refl-sky)    L(total up)       Rrs           rho       f/Q(z=0)
           (zenith)                                                                                             (Lrefl/Lsky)   [1/sr]
  10   1      0.0      0.0      0.0    7.51814E-02    2.71526E-04    6.24636E-03    6.51789E-03    2.44341E-04    0.083084    0.502035
   9   1     10.0      0.0    180.0    4.71128E-02    2.73387E-04    1.60443E-03    1.87782E-03    2.46016E-04    0.034055    0.506510
   9   4     10.0     45.0    135.0    5.16231E-02    2.71898E-04    2.04955E-03    2.32145E-03    2.44676E-04    0.039702    0.505100
   9   7     10.0     90.0     90.0    6.90640E-02    2.70402E-04    4.40442E-03    4.67482E-03    2.43329E-04    0.063773    0.501840
   8   1     20.0      0.0    180.0    3.67429E-02    2.74469E-04    8.83690E-04    1.15816E-03    2.46989E-04    0.024051    0.508626
   8   4     20.0     45.0    135.0    4.09015E-02    2.71684E-04    1.08517E-03    1.35685E-03    2.44483E-04    0.026531    0.507501
   8   7     20.0     90.0     90.0    6.00366E-02    2.70944E-04    2.51023E-03    2.78118E-03    2.43817E-04    0.041812    0.501534
   7   1     30.0      0.0    180.0    3.17523E-02    2.74630E-04    7.69708E-04    1.04434E-03    2.47134E-04    0.024241    0.513480
   7   4     30.0     45.0    135.0    3.51978E-02    2.73428E-04    8.59771E-04    1.13320E-03    2.46053E-04    0.024427    0.509873
   7   7     30.0     90.0     90.0    5.15757E-02    2.70183E-04    1.49942E-03    1.76960E-03    2.43132E-04    0.029072    0.501602
   6   1     40.0      0.0    180.0    3.01078E-02    2.72864E-04    8.52310E-04    1.12517E-03    2.45545E-04    0.028309    0.517704
   6   4     40.0     45.0    135.0    3.29291E-02    2.71271E-04    9.23894E-04    1.19517E-03    2.44111E-04    0.028057    0.512696
   6   7     40.0     90.0     90.0    4.63310E-02    2.67245E-04    1.34144E-03    1.60869E-03    2.40488E-04    0.028953    0.502989
   5   1     50.0      0.0    180.0    3.15785E-02    2.69911E-04    1.34805E-03    1.61796E-03    2.42888E-04    0.042689    0.522611
   5   4     50.0     45.0    135.0    3.36539E-02    2.67377E-04    1.39698E-03    1.66436E-03    2.40607E-04    0.041510    0.516976
   5   7     50.0     90.0     90.0    4.47752E-02    2.62860E-04    1.81017E-03    2.07303E-03    2.36543E-04    0.040428    0.507190
   4   1     60.0      0.0    180.0    3.75525E-02    2.61770E-04    3.15324E-03    3.41501E-03    2.35561E-04    0.083969    0.529989
   4   4     60.0     45.0    135.0    3.84027E-02    2.59218E-04    3.10808E-03    3.36730E-03    2.33265E-04    0.080934    0.524362
   4   7     60.0     90.0     90.0    4.74032E-02    2.54774E-04    3.62326E-03    3.87804E-03    2.29266E-04    0.076435    0.516498
   3   1     70.0      0.0    180.0    5.23414E-02    2.38518E-04    8.68642E-03    8.92494E-03    2.14638E-04    0.165957    0.542211
   3   4     70.0     45.0    135.0    5.08663E-02    2.35257E-04    8.33472E-03    8.56998E-03    2.11704E-04    0.163855    0.537517
   3   7     70.0     90.0     90.0    5.67781E-02    2.31057E-04    9.02212E-03    9.25318E-03    2.07924E-04    0.158901    0.534549
   2   1     80.0      0.0    180.0    8.96838E-02    1.96917E-04    2.15915E-02    2.17884E-02    1.77202E-04    0.240751    0.563552
   2   4     80.0     45.0    135.0    8.30395E-02    1.98099E-04    2.09185E-02    2.11166E-02    1.78266E-04    0.251910    0.561190
   2   7     80.0     90.0     90.0    8.22797E-02    1.93095E-04    2.19098E-02    2.21029E-02    1.73762E-04    0.266285    0.567712
   1   1     87.5      0.0    180.0    1.40117E-01    1.55478E-04    3.84306E-02    3.85861E-02    1.39911E-04    0.274274    0.593525
   1   4     87.5     45.0    135.0    1.26297E-01    1.43251E-04    3.81315E-02    3.82747E-02    1.28908E-04    0.301919    0.595756
   1   7     87.5     90.0     90.0    1.15031E-01    1.63729E-04    3.85696E-02    3.87333E-02    1.47336E-04    0.335298    0.612217



  K-functions (units of 1/meter) at  690.0 nm
     (These are accurate local (at depth z) values only when zupper and zlower are closely spaced.)

    zupper    zlower       z           Kou(z)         Kod(z)          Ko(z)          Ku(z)          Kd(z)        Knet(z)         KLu(z)

     0.000     0.010     0.005     1.7794E-01     5.8799E-01     5.8683E-01     1.5507E-01     5.8153E-01     5.8218E-01     1.3979E-01
     5.000     5.010     5.005    -2.8490E-02     5.6022E-01     5.3960E-01    -2.6970E-02     5.6728E-01     5.7964E-01    -2.2532E-02
    10.000    10.010    10.005    -2.5446E-02     3.3223E-01     2.2343E-01    -2.0280E-02     4.1412E-01     5.9714E-01    -9.0976E-03
    15.000    15.010    15.005     1.4775E-01     4.9109E-02     9.3619E-02     1.5132E-01     7.3304E-02    -1.5853E-01     1.6154E-01
    19.990    20.000    19.995     7.0940E+00     1.6651E-01     1.3720E+00     3.3756E+00     1.5511E-01    -6.2955E-01     1.7189E+00


     Waveband  15 of  15 completed in    1.2 sec.



  * * * * * Output for wavelength-integrated and broadband quantities * * * * *


  Band-integrated Eo as a function of depth and wavelength in units of W/m^2
     [values are integrated over the wavelength bands]

     depth      410.0      430.0      450.0      470.0      490.0      510.0      530.0      550.0      570.0      590.0      610.0      630.0      650.0      670.0      690.0

    in air  3.799E+01  3.764E+01  4.527E+01  4.659E+01  4.524E+01  4.362E+01  4.374E+01  4.298E+01  4.232E+01  4.042E+01  3.992E+01  3.869E+01  3.634E+01  3.648E+01  3.255E+01
      0.00  2.789E+01  2.751E+01  3.309E+01  3.432E+01  3.343E+01  3.202E+01  3.210E+01  3.152E+01  3.104E+01  2.949E+01  2.911E+01  2.827E+01  2.661E+01  2.680E+01  2.398E+01
      5.00  2.301E+01  2.225E+01  2.643E+01  2.768E+01  2.696E+01  2.405E+01  2.322E+01  2.164E+01  2.009E+01  1.325E+01  6.364E+00  5.213E+00  3.731E+00  2.151E+00  1.394E+00
     10.00  1.727E+01  1.616E+01  1.905E+01  2.033E+01  2.008E+01  1.695E+01  1.603E+01  1.438E+01  1.273E+01  5.806E+00  1.374E+00  9.468E-01  5.186E-01  2.220E-01  1.757E-01
     15.00  1.097E+01  9.649E+00  1.139E+01  1.259E+01  1.298E+01  1.071E+01  1.025E+01  9.100E+00  7.878E+00  2.458E+00  2.877E-01  1.653E-01  7.145E-02  7.037E-02  1.061E-01
     20.00  7.011E+00  5.765E+00  6.885E+00  7.917E+00  8.661E+00  7.218E+00  7.113E+00  6.442E+00  5.747E+00  1.312E+00  8.172E-02  3.810E-02  1.324E-02  2.043E-02  3.603E-02


  Band-integrated quantum Eo as a function of depth and wavelength in units of (micromol photons)/(m^2 s)
     [values are integrated over the wavelength bands]

     depth      410.0      430.0      450.0      470.0      490.0      510.0      530.0      550.0      570.0      590.0      610.0      630.0      650.0      670.0      690.0

    in air  1.302E+02  1.353E+02  1.703E+02  1.831E+02  1.853E+02  1.859E+02  1.938E+02  1.976E+02  2.016E+02  1.994E+02  2.036E+02  2.037E+02  1.974E+02  2.043E+02  1.877E+02
      0.00  9.560E+01  9.887E+01  1.245E+02  1.349E+02  1.369E+02  1.365E+02  1.422E+02  1.449E+02  1.479E+02  1.455E+02  1.485E+02  1.489E+02  1.446E+02  1.501E+02  1.383E+02
      5.00  7.888E+01  7.998E+01  9.942E+01  1.088E+02  1.104E+02  1.025E+02  1.029E+02  9.947E+01  9.573E+01  6.535E+01  3.245E+01  2.746E+01  2.027E+01  1.205E+01  8.039E+00
     10.00  5.919E+01  5.809E+01  7.168E+01  7.988E+01  8.226E+01  7.227E+01  7.102E+01  6.610E+01  6.065E+01  2.864E+01  7.006E+00  4.986E+00  2.818E+00  1.243E+00  1.013E+00
     15.00  3.760E+01  3.468E+01  4.285E+01  4.947E+01  5.316E+01  4.566E+01  4.539E+01  4.184E+01  3.754E+01  1.212E+01  1.467E+00  8.703E-01  3.883E-01  3.941E-01  6.118E-01
     20.00  2.403E+01  2.072E+01  2.590E+01  3.110E+01  3.548E+01  3.077E+01  3.151E+01  2.962E+01  2.738E+01  6.471E+00  4.167E-01  2.006E-01  7.192E-02  1.144E-01  2.078E-01


  PAR and broadband irradiances as a function of depth
     The wavelengths used for these calculations were  400.0 to 700.0 nm

         depth       PAR(from Eo)       PAR(from Ed)       broadband Eo       broadband Ed
          (m)     (mumol phot/m^2/s) (mumol phot/m^2/s)         (W/m^2)            (W/m^2)

        in air         2.7793E+03         1.8403E+03         6.0977E+02         4.0199E+02
          0.00         2.0381E+03         1.7855E+03         4.4719E+02         3.9020E+02
          5.00         1.0437E+03         8.9653E+02         2.4743E+02         2.1185E+02
         10.00         6.6683E+02         5.6476E+02         1.6203E+02         1.3698E+02
         15.00         4.0404E+02         3.3342E+02         9.8671E+01         8.1425E+01
         20.00         2.6400E+02         1.9443E+02         6.4260E+01         4.7592E+01


  PAR and broadband K functions (units of 1/meter) (valid only when zupper and zlower are closely spaced)

    zupper    zlower       z     K_PAR(from Eo)  broadband K_Ed

     0.000     0.010     0.005        0.1937          0.1730
     5.000     5.010     5.005        0.0963          0.0907
    10.000    10.010    10.005        0.0889          0.0890
    15.000    15.010    15.005        0.1105          0.1202
    19.990    20.000    19.995        0.0302          0.0945


  CIE 1931 chromaticity coordinates (x,y) and (il)luminance Y for selected quantities.  Output is (x,y,Y).

     Y is illuminance in lm/m^2 for Ed and Eu.  Y is luminance in lm/(m^2 sr) for Lu and Lw.  Y is not defined for Rrs

       depth             Ed                         Eu                         Lu                         Lw                        Rrs

      in air  (0.328, 0.339, 1.022E+05)  (0.305, 0.322, 3.813E+03)  (0.296, 0.320, 7.172E+02)  (0.196, 0.265, 1.376E+02)  (0.198, 0.256, 0.000E+00)
        0.00  (0.327, 0.339, 9.914E+04)  (0.189, 0.234, 7.117E+02)  (0.196, 0.265, 2.550E+02)
        5.00  (0.249, 0.320, 5.786E+04)  (0.190, 0.265, 5.913E+02)  (0.201, 0.306, 2.349E+02)
       10.00  (0.215, 0.304, 3.581E+04)  (0.206, 0.330, 5.966E+02)  (0.219, 0.367, 2.571E+02)
       15.00  (0.202, 0.304, 2.101E+04)  (0.230, 0.402, 8.453E+02)  (0.238, 0.416, 3.472E+02)
       20.00  (0.195, 0.308, 1.225E+04)  (0.253, 0.439, 1.647E+03)  (0.253, 0.439, 5.243E+02)


  The Forel-Ule number of the nadir-viewing Rrs is FU =  4

  The Forel-Ule number of the nadir-viewing, in-air Lu is FU =  4

  The Forel-Ule number of the nadir-viewing Lw is FU =  4


  Secchi depth calculations using Preisendorfer (1986):

     Gamma = 8.00
     The final depth-averaged alpha and K obtained after  12 iterations are
     alpha =  0.3998 1/m
         K =  0.1025 1/m

     The final estimate for the Secchi depth is z_SD =   15.93 m
 

  Secchi depth calculations using Lee et al. (2015) Eq (29):

     target reflectance r_T = 0.270 1/sr
     contrast threshhold C_t^r = 0.013 1/sr
     The depth-averaged K function K_d^tr is  6.638E-02 1/m

     The in-air Secchi depth computed by Lee Eq. (29) with a t/n^2 factor is V_v =  14.45 m


  Secchi depth calculations using Lee et al. (2015) Eq (33):

     The minimum of Kd(z=0, lambda) is Kdminz0 =  2.221E-01 1/m at wavelength  4 = 470.0 nm
     Lu/Ed(z=0,470.0) used for in-water r_w^tr =  5.012E-03 1/sr
     The final Kdmin averaged over zSD =  7.790E-02

     The in-air Secchi depth computed by Lee Eq. (33) with a t/n^2 factor is V_v =  12.32 m

  Run completed on 22 NOV 2025 at 21:30:08.8


  Total (wall clock) run time =     8.87E+00 sec

  Normal exit from HydroLight
